scanname 扫描019
timestamp 1/1/1970 01:11
scancount 1
laserwavenum 850.5
measurementstate Unknown
scanmode Identification
snr 5.64604 5.64604 5.64604
replacelist 0
peaks 13
698.259 0.211177 0 2.59498 0.000939888
757.29 0.114903 0 1.17912 0.00023678
908.665 0.0497705 0 1.85156 9.06484e-05
966.262 0.0633678 0 5.81196 0.000151956
1026.65 0.0568587 0 3.37088 8.39067e-05
1373.69 0.0643578 0 4.29613 0.000170358
1451.99 0.121616 0 8.20779 0.000344057
1492.07 0.0612167 0 6.54206 0.000258572
1600.7 0.0366771 0 1.56113 8.92978e-05
2849.72 0.140419 0 9.00758 0.000400673
2917.2 0.203424 0 7.01582 0.000399918
2945.36 0.0889529 0 0.800348 7.6887e-05
3025.57 0.0368183 0 1.29978 9.52734e-05
finalresult Mixture 2A1	0.240898
A1655	0.49814
spectrum 2048
0 5.09503
2.86447 1.68063
5.72895 -1.33928
8.59342 -2.17329
11.4579 -3.22591
14.3224 -0.903458
17.1868 0.128597
20.0513 2.14711
22.9158 4.75302
25.7803 6.28402
28.6447 0.980729
31.5092 -1.5594
34.3737 1.93536
37.2382 3.88392
40.1026 -0.117897
42.9671 -4.42165
45.8316 -3.74897
48.696 -0.924544
51.5605 0.517113
54.425 2.79689
57.2895 2.27784
60.1539 0.928715
63.0184 1.82019
65.8829 2.00996
68.7474 0.930364
71.6118 4.95939
74.4763 -0.432492
77.3408 0.590859
80.2053 1.43441
83.0697 4.13439
85.9342 0.731735
88.7987 2.85033
91.6632 -0.155399
94.5276 3.296
97.3921 -0.989866
100.257 -2.60959
103.121 -1.0011
105.986 2.81969
108.85 2.64685
111.714 9.4941
114.579 -1.66671
117.443 -3.57089
120.308 1.1111
123.172 3.4338
126.037 -0.462945
128.901 0.500577
131.766 4.5974
134.63 3.30855
137.495 4.51262
140.359 -0.267053
143.224 -2.66165
146.088 -2.57072
148.953 0.567158
151.817 0.941317
154.682 1.81117
157.546 4.13472
160.411 0.573901
163.275 -0.86064
166.139 2.39547
169.004 -1.34032
171.868 5.12758
174.733 2.06767
177.597 3.14152
180.462 6.86801
183.326 10.5869
186.191 5.54092
189.055 2.23941
191.92 5.75274
194.784 3.33734
197.649 1.07459
200.513 1.92426
203.378 1.6636
206.242 0.631359
209.107 -0.283303
211.971 2.58018
214.836 3.82129
217.7 1.64039
220.564 -1.02433
223.429 -1.53553
226.293 -1.2786
229.158 1.66133
232.022 3.44195
234.887 -1.20099
237.751 -0.763738
240.616 0.302605
243.48 -0.877463
246.345 1.35533
249.209 7.0441
252.074 0.583175
254.938 1.20924
257.803 3.56436
260.667 1.37986
263.532 -1.30589
266.396 0.297278
269.26 1.4077
272.125 0.877668
274.989 1.54649
277.854 2.09939
280.718 1.65265
283.583 1.36946
286.447 -0.438587
289.312 8.16504
292.176 1.37039
295.041 2.469
297.905 -2.57044
300.77 -2.61447
303.634 -3.24281
306.499 -1.31828
309.363 1.07304
312.228 -0.75859
315.092 2.90186
317.957 -0.669136
320.821 -0.195636
323.686 1.85404
326.55 4.32257
329.414 1.63446
332.279 3.12447
335.143 4.43061
338.008 1.68885
340.872 7.06232
343.737 4.84361
346.601 7.60592
349.466 1.38016
352.33 2.27345
355.195 0.847295
358.059 11.9576
360.924 2.22493
363.788 3.62756
366.653 1.07803
369.517 -1.02111
372.382 3.18459
375.246 5.01643
378.111 2.0888
380.975 0.374926
383.839 3.74719
386.704 1.12927
389.568 0.427394
392.433 1.3615
395.297 1.32727
398.162 0.248115
401.026 -0.217563
403.891 -1.45729
406.755 -1.13489
409.62 -0.0782858
412.484 2.0092
415.349 0.0234821
418.213 -2.67817
421.078 -0.725798
423.942 0.896291
426.807 3.69901
429.671 2.76352
432.535 1.84234
435.4 6.26715
438.264 -0.613778
441.129 -0.835686
443.993 -0.211422
446.858 2.42083
449.722 4.2182
452.587 0.107014
455.451 1.45289
458.316 2.47917
461.18 1.53526
464.045 -1.74638
466.909 -0.32629
469.774 2.13242
472.638 15.7567
475.503 0.657239
478.367 -0.205471
481.232 1.60929
484.096 3.81018
486.961 3.39421
489.825 -0.479574
492.689 -0.707985
495.554 0.14994
498.418 -1.47179
501.283 -2.55024
504.147 -0.0783708
507.012 0.694805
509.876 1.01497
512.741 1.501
515.605 -0.0906622
518.47 -1.85381
521.334 1.11694
524.199 4.89592
527.063 3.25069
529.928 13.6514
532.792 1.6576
535.657 4.25126
538.521 0.675129
541.385 4.61491
544.25 5.56353
547.115 -0.293348
549.979 10.9338
552.843 0.843135
555.708 2.285
558.572 -2.40181
561.437 -2.16978
564.301 -0.0686162
567.166 2.37841
570.03 3.11543
572.895 0.633653
575.759 5.77017
578.624 1.77946
581.488 -0.998525
584.353 -1.23223
587.217 5.56665
590.082 -1.05014
592.946 -0.881403
595.81 -1.32972
598.675 -1.55648
601.539 0.537916
604.404 0.692099
607.268 -0.16698
610.133 -0.736942
612.997 0.28048
615.862 0.477494
618.726 0.733351
621.591 0.691635
624.455 0.632721
627.32 0.999521
630.184 0.574383
633.049 0.331797
635.913 0.507332
638.778 0.455737
641.642 0.956225
644.507 1.05774
647.371 0.773661
650.235 0.571377
653.1 0.402101
655.964 0.661759
658.829 0.813138
661.693 0.808156
664.558 1.01667
667.422 0.849875
670.287 1.06254
673.151 1.09691
676.016 1.0443
678.88 1.10198
681.745 1.00718
684.609 0.909558
687.474 1.0266
690.338 1.43064
693.203 1.79259
696.067 2.25075
698.932 2.31388
701.796 1.91939
704.66 1.53097
707.525 1.14824
710.389 0.906515
713.254 0.895754
716.118 0.802813
718.983 0.70155
721.847 0.623188
724.712 0.648694
727.576 0.704633
730.441 0.717625
733.305 0.658402
736.17 0.683038
739.034 0.79453
741.899 0.882965
744.763 0.87566
747.628 0.9495
750.492 0.998647
753.357 1.08485
756.221 1.18967
759.086 1.15541
761.95 1.1551
764.814 0.953518
767.679 0.835396
770.543 0.77927
773.408 0.676185
776.272 0.581181
779.137 0.52679
782.001 0.45117
784.866 0.450183
787.73 0.473685
790.595 0.459518
793.459 0.457267
796.324 0.47237
799.188 0.509838
802.053 0.436579
804.917 0.456735
807.782 0.464483
810.646 0.458902
813.51 0.432149
816.375 0.414469
819.239 0.437445
822.104 0.395905
824.968 0.379908
827.833 0.371018
830.697 0.376275
833.562 0.380775
836.426 0.379629
839.291 0.380958
842.155 0.377119
845.02 0.38955
847.884 0.364763
850.749 0.383607
853.613 0.354921
856.478 0.34826
859.342 0.340896
862.207 0.313843
865.071 0.322689
867.935 0.341691
870.8 0.361404
873.664 0.388078
876.529 0.384706
879.393 0.366208
882.258 0.345255
885.122 0.363369
887.987 0.349458
890.851 0.352803
893.716 0.345534
896.58 0.385731
899.445 0.410694
902.309 0.422037
905.174 0.493754
908.038 0.50672
910.903 0.51407
913.767 0.480068
916.632 0.424198
919.496 0.390573
922.36 0.371161
925.225 0.354585
928.089 0.352464
930.954 0.352901
933.818 0.357123
936.683 0.343188
939.547 0.341866
942.412 0.363754
945.276 0.36843
948.141 0.376208
951.005 0.397282
953.87 0.415969
956.734 0.479358
959.599 0.538651
962.463 0.622226
965.328 0.657481
968.192 0.636491
971.057 0.588498
973.921 0.525591
976.785 0.475385
979.65 0.427191
982.514 0.408607
985.379 0.403341
988.243 0.407042
991.108 0.416517
993.972 0.424272
996.837 0.42638
999.701 0.422945
1002.57 0.443149
1005.43 0.439801
1008.29 0.436324
1011.16 0.452635
1014.02 0.474018
1016.89 0.493475
1019.75 0.524453
1022.62 0.535095
1025.48 0.571109
1028.35 0.597202
1031.21 0.563948
1034.07 0.492938
1036.94 0.461043
1039.8 0.441371
1042.67 0.432319
1045.53 0.440731
1048.4 0.446111
1051.26 0.445237
1054.13 0.446935
1056.99 0.438106
1059.86 0.453934
1062.72 0.467863
1065.58 0.494747
1068.45 0.510431
1071.31 0.524811
1074.18 0.506574
1077.04 0.477422
1079.91 0.463635
1082.77 0.483032
1085.64 0.464291
1088.5 0.467823
1091.36 0.44865
1094.23 0.460507
1097.09 0.452713
1099.96 0.440905
1102.82 0.440068
1105.69 0.44796
1108.55 0.415415
1111.42 0.417224
1114.28 0.42042
1117.14 0.414803
1120.01 0.382632
1122.87 0.347104
1125.74 0.339832
1128.6 0.346219
1131.47 0.362659
1134.33 0.32578
1137.2 0.322485
1140.06 0.348853
1142.92 0.348132
1145.79 0.37378
1148.65 0.390291
1151.52 0.400431
1154.38 0.421831
1157.25 0.41612
1160.11 0.418733
1162.98 0.408883
1165.84 0.419642
1168.71 0.4123
1171.57 0.377754
1174.43 0.36103
1177.3 0.361388
1180.16 0.373272
1183.03 0.38671
1185.89 0.389776
1188.76 0.366979
1191.62 0.377789
1194.49 0.385711
1197.35 0.365415
1200.21 0.365562
1203.08 0.361794
1205.94 0.354244
1208.81 0.359996
1211.67 0.366113
1214.54 0.358993
1217.4 0.352748
1220.27 0.340189
1223.13 0.365391
1225.99 0.362177
1228.86 0.358456
1231.72 0.353023
1234.59 0.36093
1237.45 0.373957
1240.32 0.375438
1243.18 0.371392
1246.05 0.366612
1248.91 0.381551
1251.78 0.379834
1254.64 0.380485
1257.5 0.397087
1260.37 0.407854
1263.23 0.422978
1266.1 0.380029
1268.96 0.351153
1271.83 0.36458
1274.69 0.371199
1277.56 0.355496
1280.42 0.338733
1283.28 0.345044
1286.15 0.352622
1289.01 0.361089
1291.88 0.36314
1294.74 0.379968
1297.61 0.382005
1300.47 0.388853
1303.34 0.393466
1306.2 0.402937
1309.06 0.403786
1311.93 0.398946
1314.79 0.399007
1317.66 0.40357
1320.52 0.387526
1323.39 0.370778
1326.25 0.378995
1329.12 0.395657
1331.98 0.401723
1334.84 0.404162
1337.71 0.422877
1340.57 0.428453
1343.44 0.438157
1346.3 0.422276
1349.17 0.436678
1352.03 0.459892
1354.9 0.462808
1357.76 0.480967
1360.62 0.505469
1363.49 0.509973
1366.35 0.515198
1369.22 0.550515
1372.08 0.624496
1374.95 0.717795
1377.81 0.65414
1380.68 0.529171
1383.54 0.438197
1386.41 0.385829
1389.27 0.367396
1392.13 0.367581
1395 0.372058
1397.86 0.390368
1400.73 0.362931
1403.59 0.364988
1406.46 0.354624
1409.32 0.380884
1412.19 0.39858
1415.05 0.415902
1417.91 0.461204
1420.78 0.453387
1423.64 0.466548
1426.51 0.487296
1429.37 0.528671
1432.24 0.613989
1435.1 0.694913
1437.97 0.761576
1440.83 0.82991
1443.69 0.928038
1446.56 1.02921
1449.42 1.20063
1452.29 1.37452
1455.15 1.26143
1458.02 0.930586
1460.88 0.864047
1463.75 0.822835
1466.61 0.684024
1469.47 0.620146
1472.34 0.549584
1475.2 0.412521
1478.07 0.363326
1480.93 0.357172
1483.8 0.370091
1486.66 0.441756
1489.53 0.579155
1492.39 0.757776
1495.26 0.675862
1498.12 0.418805
1500.98 0.308876
1503.85 0.31891
1506.71 0.328513
1509.58 0.288999
1512.44 0.293306
1515.31 0.323129
1518.17 0.317904
1521.04 0.327325
1523.9 0.292807
1526.76 0.285898
1529.63 0.270201
1532.49 0.293843
1535.36 0.285322
1538.22 0.341482
1541.09 0.347744
1543.95 0.297015
1546.82 0.277421
1549.68 0.279657
1552.54 0.29319
1555.41 0.321416
1558.27 0.371196
1561.14 0.27048
1564 0.261618
1566.87 0.290368
1569.73 0.298001
1572.6 0.274092
1575.46 0.312584
1578.33 0.290129
1581.19 0.314205
1584.05 0.307499
1586.92 0.274257
1589.78 0.269742
1592.65 0.295808
1595.51 0.317367
1598.38 0.372944
1601.24 0.411679
1604.11 0.360109
1606.97 0.305982
1609.83 0.256979
1612.7 0.266407
1615.56 0.284433
1618.43 0.259001
1621.29 0.264869
1624.16 0.245512
1627.02 0.264364
1629.89 0.265258
1632.75 0.277521
1635.61 0.301946
1638.48 0.292131
1641.34 0.258197
1644.21 0.254055
1647.07 0.29585
1649.94 0.277214
1652.8 0.332249
1655.67 0.250735
1658.53 0.24051
1661.39 0.25265
1664.26 0.249778
1667.12 0.2787
1669.99 0.282892
1672.85 0.270246
1675.72 0.249514
1678.58 0.23327
1681.45 0.232545
1684.31 0.275466
1687.18 0.224427
1690.04 0.249731
1692.9 0.23946
1695.77 0.279525
1698.63 0.286223
1701.5 0.266525
1704.36 0.251899
1707.23 0.211979
1710.09 0.237435
1712.96 0.243838
1715.82 0.270362
1718.68 0.243746
1721.55 0.212005
1724.41 0.217237
1727.28 0.217288
1730.14 0.251576
1733.01 0.30582
1735.87 0.254288
1738.74 0.270686
1741.6 0.229879
1744.46 0.245306
1747.33 0.247742
1750.19 0.25185
1753.06 0.213869
1755.92 0.232213
1758.79 0.222833
1761.65 0.218168
1764.52 0.195523
1767.38 0.21615
1770.24 0.227916
1773.11 0.230496
1775.97 0.201117
1778.84 0.177977
1781.7 0.199069
1784.57 0.18735
1787.43 0.188822
1790.3 0.231223
1793.16 0.216395
1796.02 0.205378
1798.89 0.199856
1801.75 0.198771
1804.62 0.181837
1807.48 0.183432
1810.35 0.179749
1813.21 0.181809
1816.08 0.19665
1818.94 0.185255
1821.81 0.187949
1824.67 0.219327
1827.53 0.198504
1830.4 0.194484
1833.26 0.178578
1836.13 0.167176
1838.99 0.17397
1841.86 0.181022
1844.72 0.189957
1847.59 0.173225
1850.45 0.168214
1853.31 0.180842
1856.18 0.157804
1859.04 0.159559
1861.91 0.196202
1864.77 0.184349
1867.64 0.187785
1870.5 0.20695
1873.37 0.199131
1876.23 0.193393
1879.09 0.186628
1881.96 0.21321
1884.82 0.204755
1887.69 0.215337
1890.55 0.181231
1893.42 0.195958
1896.28 0.170308
1899.15 0.185535
1902.01 0.197055
1904.87 0.174354
1907.74 0.158154
1910.6 0.178634
1913.47 0.162856
1916.33 0.187441
1919.2 0.168368
1922.06 0.165076
1924.93 0.164862
1927.79 0.156433
1930.66 0.187922
1933.52 0.175909
1936.38 0.166566
1939.25 0.162703
1942.11 0.16995
1944.98 0.169245
1947.84 0.175593
1950.71 0.178379
1953.57 0.186031
1956.44 0.156018
1959.3 0.220719
1962.16 0.190646
1965.03 0.181561
1967.89 0.178511
1970.76 0.158726
1973.62 0.164404
1976.49 0.184878
1979.35 0.202658
1982.22 0.193981
1985.08 0.163118
1987.94 0.185639
1990.81 0.181938
1993.67 0.157921
1996.54 0.194696
1999.4 0.188344
2002.27 0.182955
2005.13 0.128947
2008 0.177361
2010.86 0.182778
2013.72 0.149669
2016.59 0.195228
2019.45 0.138624
2022.32 0.157529
2025.18 0.172858
2028.05 0.146948
2030.91 0.14999
2033.78 0.172094
2036.64 0.141821
2039.51 0.160121
2042.37 0.177222
2045.23 0.214714
2048.1 0.164478
2050.96 0.184488
2053.83 0.151573
2056.69 0.15173
2059.56 0.173797
2062.42 0.182244
2065.29 0.195722
2068.15 0.173171
2071.01 0.173363
2073.88 0.205411
2076.74 0.158061
2079.61 0.142733
2082.47 0.164699
2085.34 0.182793
2088.2 0.174104
2091.07 0.158099
2093.93 0.17502
2096.79 0.182253
2099.66 0.188719
2102.52 0.16293
2105.39 0.18454
2108.25 0.179025
2111.12 0.175619
2113.98 0.170077
2116.85 0.1514
2119.71 0.161251
2122.58 0.172411
2125.44 0.17204
2128.3 0.181104
2131.17 0.173466
2134.03 0.136575
2136.9 0.152359
2139.76 0.161861
2142.63 0.155028
2145.49 0.167294
2148.36 0.121484
2151.22 0.155868
2154.08 0.172203
2156.95 0.179081
2159.81 0.205174
2162.68 0.148827
2165.54 0.178869
2168.41 0.158844
2171.27 0.161002
2174.14 0.141363
2177 0.135479
2179.86 0.147458
2182.73 0.222678
2185.59 0.213731
2188.46 0.183717
2191.32 0.165138
2194.19 0.166363
2197.05 0.165918
2199.92 0.170393
2202.78 0.18483
2205.64 0.153316
2208.51 0.167186
2211.37 0.162754
2214.24 0.18395
2217.1 0.182528
2219.97 0.171737
2222.83 0.202132
2225.7 0.227054
2228.56 0.223282
2231.43 0.236765
2234.29 0.245002
2237.15 0.228137
2240.02 0.220564
2242.88 0.218035
2245.75 0.217254
2248.61 0.191252
2251.48 0.198231
2254.34 0.192279
2257.21 0.171145
2260.07 0.18402
2262.93 0.199717
2265.8 0.206584
2268.66 0.201273
2271.53 0.185344
2274.39 0.18341
2277.26 0.171182
2280.12 0.178258
2282.99 0.17255
2285.85 0.185357
2288.71 0.178686
2291.58 0.195329
2294.44 0.183175
2297.31 0.186127
2300.17 0.169628
2303.04 0.191389
2305.9 0.19765
2308.77 0.184577
2311.63 0.193312
2314.49 0.187048
2317.36 0.193561
2320.22 0.208731
2323.09 0.214606
2325.95 0.204534
2328.82 0.189089
2331.68 0.20072
2334.55 0.208822
2337.41 0.217326
2340.28 0.209366
2343.14 0.177177
2346 0.189959
2348.87 0.180958
2351.73 0.190961
2354.6 0.201103
2357.46 0.201149
2360.33 0.219757
2363.19 0.204626
2366.06 0.202282
2368.92 0.19121
2371.78 0.195562
2374.65 0.185374
2377.51 0.179446
2380.38 0.184434
2383.24 0.173453
2386.11 0.170192
2388.97 0.169364
2391.84 0.175463
2394.7 0.176167
2397.56 0.166703
2400.43 0.170375
2403.29 0.171529
2406.16 0.180317
2409.02 0.170096
2411.89 0.17137
2414.75 0.166688
2417.62 0.174381
2420.48 0.183405
2423.34 0.174436
2426.21 0.165233
2429.07 0.186752
2431.94 0.190522
2434.8 0.176971
2437.67 0.174639
2440.53 0.18292
2443.4 0.159182
2446.26 0.182613
2449.12 0.180833
2451.99 0.169023
2454.85 0.158299
2457.72 0.151669
2460.58 0.16509
2463.45 0.170163
2466.31 0.18727
2469.18 0.184083
2472.04 0.183108
2474.91 0.189316
2477.77 0.183374
2480.63 0.172394
2483.5 0.157348
2486.36 0.13999
2489.23 0.17096
2492.09 0.160871
2494.96 0.177359
2497.82 0.174022
2500.69 0.173819
2503.55 0.195811
2506.41 0.176603
2509.28 0.19361
2512.14 0.182059
2515.01 0.193303
2517.87 0.188679
2520.74 0.180547
2523.6 0.190806
2526.47 0.179169
2529.33 0.182124
2532.19 0.174088
2535.06 0.18245
2537.92 0.181113
2540.79 0.183751
2543.65 0.177662
2546.52 0.184351
2549.38 0.193973
2552.25 0.192626
2555.11 0.176976
2557.98 0.189585
2560.84 0.178033
2563.7 0.176627
2566.57 0.16179
2569.43 0.19046
2572.3 0.222061
2575.16 0.217852
2578.03 0.189881
2580.89 0.192373
2583.76 0.207164
2586.62 0.18374
2589.48 0.195817
2592.35 0.183825
2595.21 0.208058
2598.08 0.175242
2600.94 0.195088
2603.81 0.187853
2606.67 0.181918
2609.54 0.185063
2612.4 0.215435
2615.26 0.193393
2618.13 0.199705
2620.99 0.182991
2623.86 0.2084
2626.72 0.225727
2629.59 0.208924
2632.45 0.188552
2635.32 0.189148
2638.18 0.204197
2641.04 0.189239
2643.91 0.198079
2646.77 0.207802
2649.64 0.203323
2652.5 0.19737
2655.37 0.183992
2658.23 0.199564
2661.1 0.208519
2663.96 0.21083
2666.82 0.201495
2669.69 0.213729
2672.55 0.220976
2675.42 0.202551
2678.28 0.202172
2681.15 0.194065
2684.01 0.20014
2686.88 0.198273
2689.74 0.1998
2692.61 0.202772
2695.47 0.189232
2698.33 0.212025
2701.2 0.214334
2704.06 0.211379
2706.93 0.213448
2709.79 0.22194
2712.66 0.204361
2715.52 0.2038
2718.39 0.207701
2721.25 0.225181
2724.11 0.225752
2726.98 0.229212
2729.84 0.21349
2732.71 0.213718
2735.57 0.207324
2738.44 0.19935
2741.3 0.195035
2744.17 0.2202
2747.03 0.21839
2749.89 0.211632
2752.76 0.21039
2755.62 0.210341
2758.49 0.21391
2761.35 0.226324
2764.22 0.208884
2767.08 0.212685
2769.95 0.227313
2772.81 0.215784
2775.68 0.219204
2778.54 0.225926
2781.4 0.230933
2784.27 0.236914
2787.13 0.248026
2790 0.248829
2792.86 0.251351
2795.73 0.266185
2798.59 0.26553
2801.46 0.284852
2804.32 0.298237
2807.18 0.279197
2810.05 0.312802
2812.91 0.318979
2815.78 0.331181
2818.64 0.370371
2821.51 0.382549
2824.37 0.423353
2827.24 0.502504
2830.1 0.582691
2832.96 0.688682
2835.83 0.817354
2838.69 0.925806
2841.56 1.07255
2844.42 1.27601
2847.29 1.471
2850.15 1.48487
2853.02 1.3479
2855.88 1.14199
2858.74 1.00033
2861.61 0.929165
2864.47 0.869867
2867.34 0.857698
2870.2 0.85371
2873.07 0.815722
2875.93 0.847676
2878.8 0.856922
2881.66 0.869097
2884.53 0.921157
2887.39 0.994292
2890.25 1.08672
2893.12 1.1557
2895.98 1.24369
2898.85 1.33826
2901.71 1.43797
2904.58 1.55581
2907.44 1.66144
2910.31 1.79597
2913.17 1.96008
2916.03 2.10432
2918.9 2.06612
2921.76 1.91128
2924.63 1.75432
2927.49 1.59477
2930.36 1.37827
2933.22 1.22154
2936.09 1.08658
2938.95 0.981442
2941.81 0.918635
2944.68 0.89098
2947.54 0.893516
2950.41 0.868165
2953.27 0.824987
2956.14 0.78361
2959 0.764253
2961.87 0.695136
2964.73 0.599142
2967.59 0.498008
2970.46 0.441283
2973.32 0.381501
2976.19 0.34811
2979.05 0.333748
2981.92 0.310037
2984.78 0.289807
2987.65 0.276256
2990.51 0.26698
2993.38 0.257264
2996.24 0.267643
2999.1 0.271685
3001.97 0.290516
3004.83 0.295212
3007.7 0.262666
3010.56 0.254121
3013.43 0.242516
3016.29 0.272322
3019.16 0.313689
3022.02 0.349677
3024.88 0.384304
3027.75 0.38208
3030.61 0.33454
3033.48 0.300131
3036.34 0.25923
3039.21 0.244526
3042.07 0.230962
3044.94 0.215368
3047.8 0.244485
3050.66 0.245165
3053.53 0.260045
3056.39 0.265102
3059.26 0.277813
3062.12 0.272682
3064.99 0.246556
3067.85 0.248945
3070.72 0.230043
3073.58 0.217288
3076.44 0.234504
3079.31 0.245022
3082.17 0.225465
3085.04 0.241891
3087.9 0.206838
3090.77 0.185344
3093.63 0.185218
3096.5 0.186994
3099.36 0.193376
3102.23 0.200895
3105.09 0.195217
3107.95 0.188919
3110.82 0.187401
3113.68 0.169919
3116.55 0.14541
3119.41 0.161048
3122.28 0.170188
3125.14 0.159073
3128.01 0.148015
3130.87 0.174027
3133.73 0.149017
3136.6 0.159923
3139.46 0.160665
3142.33 0.167049
3145.19 0.175997
3148.06 0.170939
3150.92 0.181318
3153.79 0.157592
3156.65 0.162568
3159.51 0.161566
3162.38 0.13915
3165.24 0.165155
3168.11 0.163149
3170.97 0.155657
3173.84 0.17446
3176.7 0.170531
3179.57 0.162793
3182.43 0.172993
3185.29 0.188692
3188.16 0.179656
3191.02 0.168041
3193.89 0.163054
3196.75 0.160392
3199.62 0.164382
3202.48 0.15584
3205.35 0.161713
3208.21 0.15801
3211.07 0.168009
3213.94 0.165219
3216.8 0.165609
3219.67 0.187694
3222.53 0.166505
3225.4 0.169657
3228.26 0.177355
3231.13 0.171132
3233.99 0.163056
3236.86 0.140189
3239.72 0.164558
3242.58 0.153391
3245.45 0.158024
3248.31 0.15705
3251.18 0.136213
3254.04 0.166901
3256.91 0.168064
3259.77 0.14882
3262.64 0.185533
3265.5 0.186183
3268.36 0.190387
3271.23 0.153603
3274.09 0.173833
3276.96 0.149882
3279.82 0.155489
3282.69 0.155823
3285.55 0.149211
3288.42 0.177403
3291.28 0.181839
3294.14 0.130899
3297.01 0.133384
3299.87 0.195139
3302.74 0.186524
3305.6 0.176597
3308.47 0.168666
