scanname 扫描248
timestamp 1/1/1970 00:11
ccdbias 1675.13
ccdgain 2.46132
sigmaread 11.4449
laserwavenum -0.349725
wavenumcorrection -0.62263
scancount 2
totalexposurems 324
singleexposurems 162
measurementstate Unknown
scanmode Identification
snr 7.14621 7.14621 7.14621
replacelist 0
peaks 27
253.409 0.0360363 0 0.330376 1.54226e-05
296.295 0.0365216 0 4.28459 0.000164319
357.301 0.0303744 0 1.15938 4.32519e-05
382.093 0.042324 0 5.92227 0.000231676
414.662 0.0295829 0 1.03661 7.15816e-05
455.777 0.039403 0 4.24106 0.00018041
587.093 0.0357751 0 2.10162 0.000118165
645.096 0.0271692 0 0.814466 4.38211e-05
737.323 0.025555 0 0.46342 2.34184e-05
758.841 0.028172 0 1.74906 0.000117303
805.209 0.0388939 0 6.48466 0.000351718
834.182 0.0511311 0 10.4376 0.000582131
911.368 0.0235617 0 0.211734 1.40985e-05
945.35 0.0243514 0 0.380973 4.10448e-05
1136.58 0.0245949 0 0.574298 5.89718e-05
1163.52 0.0235137 0 0.341775 4.94304e-05
1196.68 0.0339959 0 1.78876 0.000197124
1253.39 0.030345 0 2.05661 0.000226182
1348.64 0.0740979 0 3.96794 0.000526152
1357.96 0.0949998 0 6.31741 0.000853509
1371.61 0.0379454 0 0.651007 2.38153e-05
1382.35 0.0357124 0 0.700819 9.61798e-05
1385.62 0.0394636 0 0.32006 1.29243e-05
1473.22 0.0214149 0 0.258979 2.05608e-05
1537.02 0.0337522 0 1.00999 0.000149848
1567.6 0.0292345 0 1.27278 0.00026183
1606.5 0.0415214 0 2.96497 0.000495294
finalresult No match found 1A12587	1.61147e-17
spectrum 2048
-91.4342 0.00234034
-88.8362 0.000595118
-86.2398 0.0705172
-83.6453 0.16124
-81.0523 0.173619
-78.4612 0.111476
-75.8717 0.155009
-73.2838 0.147863
-70.6978 0.162929
-68.1134 0.130564
-65.5307 0.208066
-62.9497 0.14245
-60.3705 0.200646
-57.7928 0.2414
-55.2169 0.212855
-52.6427 0.214305
-50.0702 0.24259
-47.4995 0.214113
-44.9303 0.213213
-42.3629 0.20076
-39.7971 0.243683
-37.233 0.250591
-34.6707 0.248336
-32.1099 0.24964
-29.5509 0.26177
-26.9935 0.280161
-24.438 0.26793
-21.884 0.280884
-19.3316 0.294845
-16.781 0.327434
-14.232 0.33562
-11.6848 0.391475
-9.13913 0.427248
-6.59528 0.462408
-4.053 0.32797
-1.51234 0.267267
1.02649 0.268418
3.56384 0.269437
6.09934 0.232202
8.63328 0.198264
11.1655 0.171851
13.6961 0.193181
16.2251 0.219973
18.7523 0.228078
21.2779 0.211188
23.8019 0.206791
26.3242 0.200871
28.8449 0.203052
31.3639 0.216118
33.8812 0.201139
36.3969 0.211757
38.911 0.211275
41.4233 0.186186
43.9341 0.184369
46.4432 0.179811
48.9507 0.177705
51.4565 0.154524
53.9606 0.169363
56.4632 0.159351
58.9641 0.133086
61.4633 0.131514
63.9609 0.117259
66.4569 0.115002
68.9513 0.108722
71.444 0.133338
73.935 0.0928485
76.4244 0.144608
78.9123 0.0953577
81.3984 0.0779171
83.883 0.165641
86.3659 0.114646
88.8472 0.0746107
91.3269 0.136068
93.8049 0.0829743
96.2814 0.0597563
98.7561 0.0790077
101.23 0.071967
103.701 0.0947081
106.171 0.0889535
108.64 0.120237
111.106 0.100286
113.571 0.0842573
116.035 0.11852
118.497 0.0564873
120.957 0.0950012
123.416 0.113168
125.873 0.0829379
128.328 0.0946649
130.782 0.0829962
133.234 0.0854924
135.685 0.0737167
138.134 0.0681006
140.581 0.0640063
143.027 0.0570849
145.471 0.0539436
147.914 0.0503143
150.355 0.0453619
152.794 0.0450904
155.232 0.0442705
157.669 0.0429153
160.103 0.0434573
162.536 0.0442468
164.968 0.0509736
167.398 0.0600164
169.826 0.0738192
172.253 0.091657
174.678 0.109243
177.101 0.111379
179.523 0.0981273
181.944 0.0758532
184.362 0.0604102
186.78 0.0508106
189.195 0.0448129
191.609 0.0446637
194.022 0.0416459
196.433 0.0393616
198.842 0.0349773
201.25 0.0349449
203.656 0.0329331
206.061 0.0321965
208.464 0.0313948
210.865 0.0308687
213.265 0.0301935
215.664 0.0297678
218.06 0.0305303
220.456 0.0294731
222.849 0.0296599
225.241 0.0298561
227.632 0.0284024
230.021 0.0298534
232.408 0.028924
234.794 0.0297879
237.178 0.0298657
239.561 0.0313
241.942 0.0306333
244.322 0.0336411
246.7 0.0337211
249.077 0.0350763
251.452 0.0359568
253.825 0.0367645
256.197 0.0353051
258.568 0.0348078
260.937 0.0354412
263.304 0.0344655
265.67 0.0347802
268.034 0.0324
270.396 0.0315481
272.758 0.0299778
275.117 0.0288679
277.475 0.0282102
279.832 0.0277453
282.187 0.0276368
284.54 0.0272638
286.892 0.0276426
289.243 0.0289445
291.591 0.0315757
293.939 0.0358497
296.285 0.0374655
298.629 0.0355247
300.972 0.0323166
303.313 0.0286719
305.653 0.0274766
307.991 0.0268228
310.328 0.0256117
312.663 0.02511
314.996 0.0258444
317.328 0.0260036
319.659 0.0252688
321.988 0.0253391
324.316 0.0254367
326.642 0.0255184
328.966 0.0262892
331.29 0.0267497
333.611 0.0262279
335.931 0.0271525
338.25 0.0276138
340.567 0.0275215
342.882 0.0274658
345.196 0.0264877
347.509 0.0261311
349.82 0.0273653
352.129 0.0298534
354.437 0.0301104
356.744 0.0314993
359.049 0.0296699
361.352 0.0291712
363.654 0.027399
365.955 0.0282505
368.254 0.0261592
370.552 0.0273506
372.848 0.0284504
375.142 0.031574
377.435 0.0364643
379.727 0.0411138
382.017 0.0423937
384.306 0.0421117
386.593 0.0367241
388.878 0.0318763
391.163 0.0293601
393.445 0.0280274
395.727 0.0260941
398.006 0.0280189
400.285 0.0259737
402.562 0.0262159
404.837 0.0269578
407.111 0.0261657
409.383 0.0269315
411.654 0.0285358
413.924 0.0290312
416.191 0.0299458
418.458 0.0299252
420.723 0.025954
422.987 0.0268817
425.249 0.0257758
427.509 0.0252866
429.769 0.0253298
432.026 0.0259166
434.283 0.0254062
436.537 0.0253344
438.791 0.0252175
441.043 0.0264265
443.293 0.026725
445.542 0.0278047
447.79 0.0300574
450.036 0.0330809
452.28 0.0373098
454.523 0.0400866
456.765 0.0391031
459.005 0.0365779
461.244 0.034085
463.482 0.0289845
465.718 0.0279644
467.952 0.0266688
470.185 0.0258497
472.417 0.0253675
474.647 0.0254603
476.876 0.0237141
479.103 0.0249196
481.329 0.0245676
483.553 0.0239991
485.776 0.0239582
487.998 0.0246841
490.218 0.0246137
492.437 0.0239269
494.654 0.0249644
496.87 0.0239639
499.084 0.0253312
501.297 0.0245822
503.508 0.0240495
505.719 0.0233887
507.927 0.0246237
510.135 0.0244521
512.34 0.0243073
514.545 0.0233637
516.748 0.0244699
518.949 0.0250125
521.15 0.0246454
523.348 0.0241803
525.546 0.026183
527.742 0.0248465
529.936 0.0247807
532.129 0.0246855
534.321 0.0249141
536.511 0.0251907
538.7 0.025166
540.887 0.0245694
543.073 0.0249022
545.258 0.025097
547.441 0.0264685
549.623 0.0240605
551.803 0.0253379
553.983 0.023633
556.16 0.0254383
558.336 0.023395
560.511 0.0250353
562.685 0.0251822
564.857 0.0249687
567.027 0.0256933
569.196 0.0253734
571.364 0.0250072
573.531 0.025502
575.696 0.026086
577.859 0.0278564
580.022 0.029729
582.183 0.033017
584.342 0.0345982
586.5 0.0369946
588.657 0.0345584
590.812 0.0337153
592.966 0.0321213
595.119 0.0305797
597.27 0.02905
599.42 0.0275525
601.568 0.0259121
603.715 0.0253883
605.861 0.0252665
608.005 0.0245145
610.148 0.0242147
612.29 0.0249561
614.43 0.0233499
616.569 0.0233272
618.706 0.0236832
620.842 0.0245015
622.977 0.0233092
625.11 0.0241685
627.242 0.0242166
629.373 0.0252211
631.502 0.0242491
633.63 0.0250496
635.756 0.0239664
637.881 0.0246056
640.005 0.024994
642.127 0.026596
644.248 0.0279106
646.368 0.02758
648.487 0.026607
650.604 0.0256083
652.719 0.0245464
654.833 0.024331
656.946 0.0240431
659.058 0.0238738
661.168 0.0231302
663.277 0.0238625
665.384 0.0237552
667.491 0.0241386
669.595 0.0236983
671.699 0.0236283
673.801 0.0237446
675.902 0.0243061
678.001 0.0228618
680.099 0.0241907
682.196 0.0233472
684.292 0.0236371
686.386 0.0249789
688.478 0.0244321
690.57 0.0242079
692.66 0.0247748
694.749 0.0234164
696.836 0.0238399
698.922 0.0243107
701.007 0.0236797
703.09 0.0239969
705.172 0.023773
707.253 0.0242276
709.333 0.0229245
711.411 0.0222056
713.487 0.0236429
715.563 0.0230265
717.637 0.0230899
719.71 0.0228859
721.781 0.0227527
723.851 0.0232081
725.92 0.0225924
727.988 0.0237987
730.054 0.0246572
732.119 0.0239846
734.182 0.0245578
736.245 0.0260919
738.306 0.0255741
740.365 0.0258828
742.424 0.0250853
744.481 0.024502
746.536 0.0231262
748.591 0.0235603
750.644 0.0234898
752.696 0.0234085
754.746 0.0263105
756.795 0.0286167
758.843 0.0277633
760.889 0.0272473
762.935 0.0260295
764.979 0.024063
767.021 0.0234821
769.063 0.0239883
771.103 0.0230029
773.141 0.0244357
775.179 0.0251217
777.215 0.0235869
779.25 0.0249514
781.284 0.0244887
783.316 0.023288
785.347 0.0237655
787.377 0.0221641
789.405 0.0234769
791.432 0.0239391
793.458 0.0236286
795.482 0.0231819
797.506 0.0257504
799.528 0.0272103
801.548 0.0338049
803.568 0.0393518
805.586 0.0389882
807.603 0.0366981
809.618 0.0302105
811.633 0.0255651
813.646 0.0235682
815.657 0.0240847
817.668 0.0238414
819.677 0.0237931
821.685 0.0234941
823.692 0.0238954
825.697 0.0249347
827.701 0.0284081
829.704 0.0367673
831.706 0.0467295
833.706 0.0523505
835.705 0.0516476
837.703 0.0425216
839.699 0.0333812
841.694 0.0276504
843.688 0.0263176
845.681 0.0242987
847.672 0.0243487
849.663 0.0246211
851.652 0.0252429
853.639 0.026209
855.626 0.0239136
857.611 0.0239726
859.595 0.0237757
861.577 0.022966
863.559 0.0230212
865.539 0.0240043
867.518 0.0223792
869.495 0.0235677
871.472 0.0233352
873.447 0.0229421
875.421 0.0229345
877.393 0.0223101
879.365 0.0232201
881.335 0.0224274
883.304 0.0225179
885.272 0.0223854
887.238 0.0238201
889.203 0.023098
891.167 0.0201857
893.13 0.0217419
895.091 0.0216728
897.051 0.0222484
899.01 0.0222723
900.968 0.0224927
902.925 0.0217305
904.88 0.0234688
906.834 0.0225087
908.787 0.0238773
910.738 0.0240014
912.689 0.0234329
914.638 0.0232541
916.586 0.0238523
918.532 0.0224838
920.478 0.0219935
922.422 0.0214911
924.365 0.0216453
926.307 0.021787
928.247 0.0221586
930.187 0.0217285
932.125 0.020985
934.062 0.0212212
935.997 0.0216311
937.932 0.0224268
939.865 0.0232465
941.797 0.0225651
943.728 0.024595
945.657 0.024852
947.586 0.0243309
949.513 0.0234563
951.439 0.0228892
953.363 0.0216042
955.287 0.0219524
957.209 0.0219851
959.13 0.0216075
961.05 0.0216298
962.969 0.0216541
964.886 0.0212499
966.803 0.0199883
968.718 0.0221774
970.632 0.0211707
972.544 0.0207335
974.456 0.0215799
976.366 0.0227828
978.275 0.0216164
980.183 0.0230482
982.09 0.0214218
983.995 0.0202989
985.899 0.0216899
987.802 0.0208562
989.704 0.0195523
991.605 0.0208196
993.504 0.0211966
995.403 0.0202952
997.3 0.0210311
999.196 0.0215719
1001.09 0.021016
1002.98 0.0201661
1004.87 0.0216876
1006.76 0.0205511
1008.65 0.0217798
1010.54 0.0207725
1012.43 0.0206339
1014.32 0.0213521
1016.2 0.0214585
1018.09 0.0201583
1019.97 0.0204812
1021.85 0.020788
1023.73 0.0218508
1025.61 0.0201557
1027.49 0.0218002
1029.37 0.0202057
1031.24 0.0219452
1033.12 0.0219742
1034.99 0.0211895
1036.86 0.0209378
1038.73 0.0225823
1040.6 0.020708
1042.47 0.0212297
1044.34 0.0201669
1046.21 0.0209487
1048.07 0.0217498
1049.94 0.0210639
1051.8 0.0188686
1053.66 0.0196516
1055.52 0.020324
1057.38 0.0208229
1059.24 0.0217779
1061.1 0.0205933
1062.95 0.0200612
1064.81 0.0205205
1066.66 0.0208922
1068.51 0.0192067
1070.37 0.0198004
1072.22 0.020229
1074.07 0.0200573
1075.91 0.0200398
1077.76 0.0207038
1079.61 0.0213426
1081.45 0.0213813
1083.29 0.0199791
1085.14 0.0212615
1086.98 0.020995
1088.82 0.021943
1090.66 0.0202341
1092.49 0.0218497
1094.33 0.0211685
1096.16 0.0200337
1098 0.0203928
1099.83 0.0200748
1101.66 0.0195641
1103.49 0.0205871
1105.32 0.0199056
1107.15 0.0200031
1108.98 0.0211292
1110.81 0.0198528
1112.63 0.019973
1114.45 0.0207728
1116.28 0.0215634
1118.1 0.0202411
1119.92 0.0206525
1121.74 0.0222305
1123.56 0.0203067
1125.37 0.0209973
1127.19 0.0219387
1129.01 0.0212058
1130.82 0.0229975
1132.63 0.0235698
1134.44 0.0235189
1136.25 0.0247656
1138.06 0.0248853
1139.87 0.0241516
1141.68 0.0229734
1143.48 0.0216461
1145.29 0.0216312
1147.09 0.0210559
1148.89 0.0197232
1150.7 0.0196729
1152.5 0.0207602
1154.3 0.0204538
1156.09 0.0206886
1157.89 0.0218818
1159.69 0.0228373
1161.48 0.0229048
1163.27 0.025051
1165.07 0.0231977
1166.86 0.0216426
1168.65 0.0222193
1170.44 0.0216325
1172.23 0.0198662
1174.01 0.0205741
1175.8 0.0213173
1177.58 0.0212038
1179.37 0.0214591
1181.15 0.0211893
1182.93 0.021881
1184.71 0.0229788
1186.49 0.0246478
1188.27 0.0253698
1190.05 0.0273852
1191.82 0.0305107
1193.6 0.0317252
1195.37 0.0340093
1197.14 0.0346681
1198.91 0.0323369
1200.68 0.0310705
1202.45 0.0268004
1204.22 0.0232124
1205.99 0.020993
1207.76 0.0213502
1209.52 0.0209376
1211.28 0.0195433
1213.05 0.0201915
1214.81 0.0204342
1216.57 0.0201854
1218.33 0.0203312
1220.09 0.0202984
1221.85 0.0208319
1223.6 0.0191508
1225.36 0.0187108
1227.11 0.0185243
1228.86 0.0207569
1230.62 0.0197679
1232.37 0.0202377
1234.12 0.0197213
1235.86 0.0189939
1237.61 0.020529
1239.36 0.0201393
1241.1 0.0191531
1242.85 0.020707
1244.59 0.019895
1246.33 0.0217741
1248.08 0.0238302
1249.82 0.0275226
1251.56 0.029871
1253.29 0.030197
1255.03 0.0298116
1256.77 0.0273871
1258.5 0.0246763
1260.23 0.0223461
1261.97 0.0199063
1263.7 0.0208113
1265.43 0.0201716
1267.16 0.0197814
1268.89 0.0205334
1270.61 0.0208131
1272.34 0.0202094
1274.07 0.0215762
1275.79 0.020807
1277.51 0.0211893
1279.23 0.0209605
1280.96 0.0213638
1282.68 0.0209272
1284.39 0.0206556
1286.11 0.0206178
1287.83 0.0220145
1289.54 0.0214827
1291.26 0.022176
1292.97 0.0214234
1294.69 0.0220216
1296.4 0.0221314
1298.11 0.0215808
1299.82 0.0220452
1301.52 0.0233945
1303.23 0.0228779
1304.94 0.024422
1306.64 0.0244799
1308.35 0.0237596
1310.05 0.0236144
1311.75 0.0253419
1313.45 0.0237259
1315.15 0.0247746
1316.85 0.024618
1318.55 0.0258787
1320.25 0.0277618
1321.94 0.0272657
1323.64 0.0254964
1325.33 0.0282023
1327.02 0.0271192
1328.72 0.0288499
1330.41 0.0293232
1332.1 0.0288567
1333.79 0.0293464
1335.47 0.0310926
1337.16 0.0323233
1338.84 0.0356282
1340.53 0.0401639
1342.21 0.0512946
1343.89 0.0624239
1345.58 0.0686433
1347.26 0.0745975
1348.94 0.0733973
1350.61 0.0719808
1352.29 0.0752297
1353.97 0.0813225
1355.64 0.089177
1357.32 0.0969001
1358.99 0.0943752
1360.66 0.087926
1362.33 0.077196
1364 0.0650217
1365.67 0.0560385
1367.34 0.0513669
1369.01 0.0442727
1370.67 0.0390138
1372.34 0.0394
1374 0.036623
1375.67 0.0361513
1377.33 0.0366723
1378.99 0.0343736
1380.65 0.0354846
1382.31 0.0356575
1383.96 0.0364424
1385.62 0.034683
1387.28 0.0323441
1388.93 0.031678
1390.59 0.029119
1392.24 0.026552
1393.89 0.0259612
1395.54 0.0238689
1397.19 0.0226243
1398.84 0.0231096
1400.49 0.0241458
1402.14 0.0227466
1403.78 0.0234626
1405.43 0.0243641
1407.07 0.0235295
1408.71 0.0222871
1410.35 0.0230878
1412 0.0220299
1413.64 0.0209947
1415.27 0.0216612
1416.91 0.0210028
1418.55 0.0210965
1420.18 0.0205205
1421.82 0.020701
1423.45 0.0198073
1425.09 0.0200815
1426.72 0.0199707
1428.35 0.0212689
1429.98 0.0203991
1431.61 0.0210589
1433.24 0.0204962
1434.86 0.0200464
1436.49 0.0221379
1438.11 0.0214237
1439.74 0.0204413
1441.36 0.0212573
1442.98 0.0198706
1444.6 0.020225
1446.22 0.0187749
1447.84 0.018864
1449.46 0.0202786
1451.08 0.0204364
1452.69 0.0197304
1454.31 0.0194279
1455.92 0.0201978
1457.54 0.0200119
1459.15 0.0208055
1460.76 0.0210267
1462.37 0.0182499
1463.98 0.0206916
1465.59 0.0204167
1467.2 0.0203182
1468.8 0.0208114
1470.41 0.0206614
1472.01 0.0213388
1473.62 0.0221517
1475.22 0.0227379
1476.82 0.0201768
1478.42 0.0212473
1480.02 0.0190387
1481.62 0.0200545
1483.22 0.0193248
1484.81 0.0191645
1486.41 0.017104
1488 0.0197318
1489.6 0.0190959
1491.19 0.0177611
1492.78 0.019024
1494.37 0.0195464
1495.96 0.0179182
1497.55 0.018345
1499.14 0.0184199
1500.73 0.0179704
1502.31 0.0195743
1503.9 0.0182658
1505.48 0.0189295
1507.06 0.0210853
1508.65 0.0185119
1510.23 0.0197417
1511.81 0.0193319
1513.39 0.0209396
1514.97 0.018379
1516.54 0.0186349
1518.12 0.0199333
1519.7 0.0200121
1521.27 0.0212571
1522.84 0.0226926
1524.42 0.0220915
1525.99 0.0226591
1527.56 0.0243497
1529.13 0.0250611
1530.7 0.0273422
1532.27 0.0306846
1533.83 0.0322528
1535.4 0.0347908
1536.97 0.0320759
1538.53 0.0339316
1540.09 0.0313182
1541.66 0.0315677
1543.22 0.027781
1544.78 0.027572
1546.34 0.0289945
1547.9 0.0278764
1549.45 0.0297399
1551.01 0.0299965
1552.57 0.0276789
1554.12 0.0268048
1555.67 0.023746
1557.23 0.0237943
1558.78 0.0233375
1560.33 0.021595
1561.88 0.0211162
1563.43 0.0243063
1564.98 0.0273852
1566.53 0.0280075
1568.07 0.0296861
1569.62 0.0295052
1571.16 0.0249946
1572.71 0.0252909
1574.25 0.0216535
1575.79 0.0206858
1577.33 0.0205983
1578.87 0.0201515
1580.41 0.0180662
1581.95 0.0209778
1583.49 0.0193349
1585.02 0.019623
1586.56 0.0201623
1588.09 0.020715
1589.63 0.0212748
1591.16 0.0229892
1592.69 0.0221559
1594.22 0.0230834
1595.75 0.0227133
1597.28 0.0251573
1598.81 0.0249944
1600.34 0.0285314
1601.86 0.0314733
1603.39 0.0360965
1604.91 0.0394722
1606.43 0.0422841
1607.96 0.040757
1609.48 0.0371958
1611 0.0311812
1612.52 0.027256
1614.04 0.0244615
1615.56 0.0212282
1617.07 0.018909
1618.59 0.0193911
1620.1 0.0192757
1621.62 0.0187646
1623.13 0.016762
1624.65 0.0185161
1626.16 0.0165961
1627.67 0.0169351
1629.18 0.0170208
1630.69 0.0179102
1632.19 0.0166536
1633.7 0.0164217
1635.21 0.0169492
1636.71 0.0167973
1638.22 0.0171182
1639.72 0.0160634
1641.22 0.0158707
1642.73 0.0157121
1644.23 0.0171194
1645.73 0.0154092
1647.23 0.0160367
1648.72 0.0167101
1650.22 0.0169221
1651.72 0.0162986
1653.21 0.0159163
1654.71 0.0162288
1656.2 0.0162792
1657.69 0.015351
1659.19 0.0157328
1660.68 0.0158478
1662.17 0.0157049
1663.66 0.014607
1665.15 0.0152
1666.63 0.015986
1668.12 0.0150491
1669.6 0.0165327
1671.09 0.0155641
1672.57 0.0156161
1674.06 0.0156414
1675.54 0.01435
1677.02 0.0147071
1678.5 0.014534
1679.98 0.0143041
1681.46 0.016921
1682.94 0.0150516
1684.41 0.0155992
1685.89 0.0157947
1687.36 0.0162704
1688.84 0.0140634
1690.31 0.0148348
1691.78 0.014362
1693.26 0.0138769
1694.73 0.015519
1696.2 0.0154014
1697.67 0.0139844
1699.13 0.0143121
1700.6 0.0153519
1702.07 0.0158184
1703.53 0.0153468
1705 0.0150511
1706.46 0.0150727
1707.92 0.0151495
1709.39 0.0140833
1710.85 0.0155655
1712.31 0.0156897
1713.77 0.0146632
1715.23 0.0134705
1716.68 0.0172215
1718.14 0.0152323
1719.6 0.0161844
1721.05 0.0155886
1722.51 0.015434
1723.96 0.0131273
1725.41 0.013882
1726.86 0.0137926
1728.31 0.0146078
1729.76 0.0143045
1731.21 0.0139228
1732.66 0.014716
1734.11 0.0145182
1735.56 0.0143226
1737 0.0141728
1738.45 0.0133334
1739.89 0.0144779
1741.33 0.0146951
1742.77 0.0140734
1744.22 0.013594
1745.66 0.0146543
1747.1 0.013633
1748.53 0.0139126
1749.97 0.015901
1751.41 0.0143248
1752.85 0.0151433
1754.28 0.0143336
1755.72 0.0158422
1757.15 0.013432
1758.58 0.0138776
1760.01 0.0142181
1761.45 0.0131788
1762.88 0.0126003
1764.31 0.0133294
1765.73 0.0138009
1767.16 0.0134329
1768.59 0.0129475
1770.01 0.0154137
1771.44 0.0131558
1772.86 0.0148804
1774.29 0.0151922
1775.71 0.0136898
1777.13 0.0145812
1778.55 0.0135937
1779.97 0.0134731
1781.39 0.0134738
1782.81 0.0145785
1784.23 0.0135958
1785.65 0.0140494
1787.06 0.0140016
1788.48 0.0121417
1789.89 0.0140338
1791.3 0.0146786
1792.72 0.0136704
1794.13 0.0142922
1795.54 0.0147842
1796.95 0.0117125
1798.36 0.0152333
1799.77 0.0135488
1801.18 0.0124802
1802.58 0.0156893
1803.99 0.0146187
1805.39 0.0142825
1806.8 0.014186
1808.2 0.0139409
1809.6 0.0130402
1811.01 0.0134694
1812.41 0.0144634
1813.81 0.0148305
1815.21 0.0143854
1816.6 0.0143084
1818 0.0134892
1819.4 0.0155243
1820.79 0.0141046
1822.19 0.0131699
1823.58 0.0153047
1824.98 0.0148341
1826.37 0.0139277
1827.76 0.0152806
1829.15 0.0137897
1830.54 0.0128102
1831.93 0.0144718
1833.32 0.0144027
1834.71 0.0147497
1836.1 0.0147615
1837.48 0.0136733
1838.87 0.0145538
1840.25 0.0150909
1841.64 0.0128113
1843.02 0.0135455
1844.4 0.0140303
1845.78 0.0141021
1847.16 0.0121722
1848.54 0.014369
1849.92 0.013357
1851.3 0.0123446
1852.68 0.0135229
1854.05 0.0147198
1855.43 0.01258
1856.8 0.013676
1858.18 0.0133768
1859.55 0.0124854
1860.92 0.0142125
1862.29 0.0149155
1863.66 0.0135502
1865.03 0.012305
1866.4 0.0153667
1867.77 0.0111325
1869.14 0.013835
1870.51 0.012681
1871.87 0.0128488
1873.24 0.012715
1874.6 0.0137244
1875.97 0.0127857
1877.33 0.0126392
1878.69 0.0127011
1880.05 0.0128528
1881.41 0.0118555
1882.77 0.0117053
1884.13 0.0112115
1885.49 0.0138629
1886.84 0.012148
1888.2 0.013033
1889.56 0.0121239
1890.91 0.0139121
1892.26 0.0133334
