scanname 扫描253
timestamp 1/1/1970 00:22
ccdbias 1677.02
ccdgain 2.46132
sigmaread 11.4449
laserwavenum -0.536069
wavenumcorrection -0.808974
scancount 1
totalexposurems 659
singleexposurems 659
measurementstate Unknown
scanmode Identification
snr 20.8273 20.8273 20.8273
replacelist 0
peaks 27
290.935 0.431782 0 11.6077 0.00109319
355.777 0.41399 0 7.98521 0.00079344
479.251 0.361445 0 0.168066 3.7139e-05
495.625 0.376875 0 2.65382 0.000346714
568.699 0.340248 0 0.374481 7.76936e-05
612.664 0.346408 0 1.31159 0.000152841
703.955 0.314748 0 0.224471 3.14948e-05
739.175 0.311925 0 0.174537 1.1928e-05
745.488 0.313658 0 0.488939 6.33359e-05
768.15 0.309868 0 0.26685 7.98588e-05
807.162 0.402444 0 16.6236 0.00215414
840.012 0.349178 0 8.21255 0.00111671
930.843 0.325803 0 4.2618 0.000683327
953.894 0.303413 0 1.87973 0.000373827
1079.43 0.305556 0 2.8727 0.00056858
1128.33 0.270712 0 0.0834392 1.81461e-05
1201.13 0.299283 0 3.0038 0.000651218
1246.71 0.29565 0 1.29686 0.000396718
1311.65 0.292131 0 0.348721 0.000144954
1353.06 0.812021 0 25.8718 0.0076194
1376.32 0.408595 0 4.83357 0.00132106
1544.07 0.347973 0 3.47415 0.00119804
1597.33 0.31735 0 3.70855 0.00124218
1625.94 0.237592 0 0.199678 0.000102959
1982.33 0.173501 0 0.164475 5.12468e-05
2065.62 0.167092 0 0.194816 0.000116502
2868.67 0.120199 0 0.14295 0.000632508
finalresult No match found 1A10697	1.2372e-38
spectrum 2048
-91.2478 0.0148612
-88.6498 0.0140845
-86.0534 0.231893
-83.4589 0.251425
-80.8659 0.283132
-78.2748 0.274708
-75.6853 0.191262
-73.0974 0.289715
-70.5114 0.297572
-67.927 0.267602
-65.3443 0.288857
-62.7633 0.253023
-60.1841 0.264217
-57.6064 0.298199
-55.0305 0.301336
-52.4563 0.315942
-49.8838 0.309486
-47.3131 0.336844
-44.7439 0.365046
-42.1765 0.400923
-39.6107 0.345766
-37.0466 0.391427
-34.4843 0.373576
-31.9235 0.407407
-29.3645 0.41767
-26.8071 0.417544
-24.2516 0.41784
-21.6976 0.448504
-19.1452 0.444826
-16.5946 0.476365
-14.0456 0.527113
-11.4984 0.61705
-8.95279 0.6863
-6.40894 0.430434
-3.86666 0.163631
-1.326 0.133333
1.21284 0.133861
3.75018 0.134452
6.28568 0.143634
8.81962 0.268195
11.3519 0.235358
13.8825 0.283879
16.4115 0.352286
18.9387 0.369793
21.4643 0.338975
23.9883 0.336325
26.5106 0.328644
29.0313 0.34255
31.5503 0.350085
34.0676 0.334755
36.5833 0.352928
39.0974 0.350633
41.6097 0.306294
44.1205 0.289835
46.6296 0.282445
49.1371 0.276659
51.6429 0.244422
54.147 0.275904
56.6496 0.254284
59.1505 0.239472
61.6497 0.244056
64.1473 0.242244
66.6433 0.221415
69.1377 0.235031
71.6304 0.243294
74.1214 0.231042
76.6108 0.253683
79.0987 0.249252
81.5848 0.272204
84.0694 0.251689
86.5523 0.244049
89.0336 0.244493
91.5133 0.262752
93.9913 0.25898
96.4678 0.24027
98.9425 0.28217
101.416 0.24444
103.887 0.252555
106.357 0.271605
108.826 0.291838
111.292 0.277134
113.757 0.357136
116.221 0.3454
118.683 0.329858
121.143 0.38934
123.602 0.390802
126.059 0.411698
128.514 0.425806
130.968 0.438949
133.42 0.430252
135.871 0.421842
138.32 0.412252
140.767 0.403089
143.213 0.401913
145.657 0.402197
148.1 0.395574
150.541 0.389991
152.98 0.385773
155.418 0.381976
157.855 0.382169
160.289 0.374152
162.722 0.374301
165.154 0.373282
167.584 0.3696
170.012 0.372525
172.439 0.368017
174.864 0.367358
177.287 0.366478
179.709 0.365302
182.13 0.368167
184.548 0.370603
186.966 0.370117
189.381 0.368389
191.795 0.366049
194.208 0.371407
196.619 0.365866
199.028 0.367696
201.436 0.368765
203.842 0.372346
206.247 0.379502
208.65 0.396475
211.051 0.415801
213.451 0.441553
215.85 0.457733
218.246 0.459235
220.642 0.440189
223.035 0.425969
225.427 0.413478
227.818 0.414774
230.207 0.42981
232.594 0.43771
234.98 0.438204
237.364 0.430711
239.747 0.41321
242.128 0.39445
244.508 0.385773
246.886 0.376202
249.263 0.375725
251.638 0.376087
254.011 0.368727
256.383 0.36527
258.754 0.366239
261.123 0.358801
263.49 0.358958
265.856 0.355839
268.22 0.356277
270.582 0.35645
272.944 0.356138
275.303 0.35865
277.661 0.357986
280.018 0.360359
282.373 0.367403
284.726 0.388466
287.078 0.412963
289.429 0.435375
291.777 0.434602
294.125 0.41671
296.471 0.390939
298.815 0.369241
301.158 0.355901
303.499 0.354423
305.839 0.352697
308.177 0.350962
310.514 0.349868
312.849 0.350351
315.182 0.35147
317.514 0.351042
319.845 0.351193
322.174 0.351108
324.502 0.351711
326.828 0.349187
329.152 0.351488
331.476 0.349831
333.797 0.347952
336.117 0.34961
338.436 0.350353
340.753 0.351293
343.068 0.351112
345.382 0.356672
347.695 0.366679
350.006 0.380772
352.315 0.401965
354.623 0.416793
356.93 0.416579
359.235 0.402552
361.538 0.386893
363.84 0.374493
366.141 0.366147
368.44 0.360848
370.738 0.358771
373.034 0.354549
375.328 0.352375
377.621 0.34999
379.913 0.346169
382.203 0.345763
384.492 0.343451
386.779 0.340893
389.064 0.343639
391.349 0.340627
393.631 0.343065
395.913 0.341437
398.192 0.339591
400.471 0.338054
402.748 0.338057
405.023 0.341701
407.297 0.338998
409.569 0.34215
411.84 0.338307
414.11 0.332815
416.377 0.333525
418.644 0.336865
420.909 0.340706
423.173 0.338475
425.435 0.339895
427.695 0.343023
429.955 0.341694
432.212 0.342371
434.469 0.341301
436.723 0.344385
438.977 0.341904
441.229 0.343376
443.479 0.34113
445.728 0.34286
447.976 0.344844
450.222 0.343335
452.466 0.346088
454.709 0.347218
456.951 0.347073
459.191 0.350968
461.43 0.347716
463.668 0.353187
465.904 0.355979
468.138 0.357518
470.371 0.35975
472.603 0.359238
474.833 0.363512
477.062 0.356247
479.289 0.36063
481.515 0.360882
483.739 0.362808
485.962 0.367526
488.184 0.366863
490.404 0.367469
492.623 0.37443
494.84 0.374541
497.056 0.37777
499.27 0.372733
501.483 0.36406
503.694 0.354546
505.905 0.350167
508.113 0.343706
510.321 0.343518
512.526 0.340714
514.731 0.339935
516.934 0.337977
519.135 0.338758
521.336 0.339117
523.534 0.337515
525.732 0.335672
527.928 0.334911
530.122 0.334122
532.315 0.333997
534.507 0.334415
536.697 0.337738
538.886 0.336344
541.073 0.335498
543.259 0.332021
545.444 0.336016
547.627 0.334521
549.809 0.333455
551.989 0.33109
554.169 0.33538
556.346 0.334127
558.522 0.332779
560.697 0.335389
562.871 0.337286
565.043 0.337282
567.213 0.340218
569.382 0.340816
571.55 0.342481
573.717 0.336341
575.882 0.33614
578.045 0.335829
580.208 0.331767
582.369 0.332484
584.528 0.331368
586.686 0.332756
588.843 0.333245
590.998 0.332258
593.152 0.331959
595.305 0.334188
597.456 0.333779
599.606 0.331672
601.754 0.335853
603.901 0.336695
606.047 0.337853
608.191 0.345789
610.334 0.347082
612.476 0.344254
614.616 0.346137
616.755 0.343459
618.892 0.339639
621.028 0.336863
623.163 0.3294
625.296 0.329361
627.428 0.32623
629.559 0.325261
631.688 0.323647
633.816 0.324348
635.942 0.324282
638.067 0.320218
640.191 0.32111
642.313 0.318317
644.434 0.321458
646.554 0.320371
648.673 0.318872
650.79 0.319345
652.905 0.317719
655.019 0.319979
657.132 0.318154
659.244 0.317043
661.354 0.316886
663.463 0.315912
665.57 0.316582
667.677 0.314359
669.781 0.31595
671.885 0.314803
673.987 0.315295
676.088 0.315829
678.187 0.314566
680.285 0.316093
682.382 0.317307
684.478 0.313856
686.572 0.313582
688.664 0.312673
690.756 0.308744
692.846 0.311306
694.935 0.312615
697.022 0.311621
699.108 0.313986
701.193 0.315882
703.276 0.317353
705.358 0.313415
707.439 0.313831
709.519 0.31246
711.597 0.313593
713.673 0.309184
715.749 0.312672
717.823 0.309285
719.896 0.310886
721.967 0.309547
724.037 0.310049
726.106 0.311388
728.174 0.311986
730.24 0.312236
732.305 0.307733
734.368 0.308695
736.431 0.306357
738.492 0.313705
740.551 0.310775
742.61 0.313727
744.667 0.314149
746.722 0.31332
748.777 0.314161
750.83 0.309834
752.882 0.310155
754.932 0.306704
756.981 0.30688
759.029 0.306981
761.075 0.306314
763.121 0.308016
765.165 0.305936
767.207 0.313141
769.249 0.309865
771.289 0.308459
773.327 0.307938
775.365 0.304655
777.401 0.303671
779.436 0.302927
781.47 0.299115
783.502 0.302505
785.533 0.301645
787.563 0.302707
789.591 0.302978
791.618 0.304267
793.644 0.302963
795.668 0.302575
797.692 0.306556
799.714 0.313098
801.734 0.335904
803.754 0.376543
805.772 0.406139
807.789 0.404826
809.804 0.38563
811.819 0.341037
813.832 0.315939
815.843 0.304123
817.854 0.300834
819.863 0.302849
821.871 0.300905
823.878 0.298634
825.883 0.299858
827.887 0.300118
829.89 0.302625
831.892 0.303051
833.892 0.30949
835.891 0.325268
837.889 0.34532
839.885 0.353525
841.88 0.342519
843.874 0.332153
845.867 0.311296
847.858 0.297909
849.849 0.300189
851.838 0.297567
853.825 0.296048
855.812 0.294151
857.797 0.294101
859.781 0.293785
861.763 0.29263
863.745 0.293183
865.725 0.29299
867.704 0.288108
869.681 0.291512
871.658 0.291808
873.633 0.290938
875.607 0.288456
877.579 0.288364
879.551 0.285452
881.521 0.288701
883.49 0.288402
885.458 0.291039
887.424 0.290483
889.389 0.290382
891.353 0.288913
893.316 0.2866
895.277 0.286243
897.237 0.284934
899.196 0.286358
901.154 0.286325
903.111 0.28598
905.066 0.289342
907.02 0.289845
908.973 0.291661
910.924 0.29064
912.875 0.290354
914.824 0.291129
916.772 0.289732
918.718 0.290687
920.664 0.290833
922.608 0.292888
924.551 0.300585
926.493 0.309505
928.433 0.32245
930.373 0.326597
932.311 0.324028
934.248 0.319053
936.183 0.305422
938.118 0.297952
940.051 0.292338
941.983 0.288261
943.914 0.287613
945.843 0.286664
947.772 0.289459
949.699 0.296351
951.625 0.302422
953.549 0.302991
955.473 0.30201
957.395 0.299251
959.316 0.292343
961.236 0.289161
963.155 0.287318
965.072 0.28516
966.989 0.284381
968.904 0.282869
970.818 0.280641
972.73 0.282035
974.642 0.281976
976.552 0.278967
978.461 0.281313
980.369 0.281507
982.276 0.280457
984.181 0.279216
986.085 0.281258
987.988 0.275091
989.89 0.277574
991.791 0.278818
993.69 0.275492
995.589 0.276446
997.486 0.28015
999.382 0.27768
1001.28 0.281235
1003.17 0.278842
1005.06 0.276862
1006.95 0.275314
1008.84 0.276453
1010.73 0.276438
1012.62 0.274303
1014.51 0.276512
1016.39 0.276571
1018.28 0.276771
1020.16 0.279334
1022.04 0.27898
1023.92 0.274927
1025.8 0.276276
1027.68 0.277559
1029.56 0.274143
1031.43 0.276043
1033.31 0.274604
1035.18 0.275894
1037.05 0.277298
1038.92 0.273144
1040.79 0.274711
1042.66 0.272908
1044.53 0.274135
1046.4 0.271076
1048.26 0.275166
1050.13 0.271726
1051.99 0.276008
1053.85 0.275088
1055.71 0.27301
1057.57 0.27302
1059.43 0.275039
1061.29 0.27592
1063.14 0.273416
1065 0.276533
1066.85 0.277584
1068.7 0.279917
1070.56 0.283829
1072.41 0.286207
1074.26 0.290491
1076.1 0.297826
1077.95 0.305283
1079.8 0.307435
1081.64 0.302876
1083.48 0.292437
1085.33 0.287832
1087.17 0.281623
1089.01 0.275048
1090.85 0.273407
1092.68 0.273293
1094.52 0.2713
1096.35 0.270712
1098.19 0.268289
1100.02 0.266703
1101.85 0.268113
1103.68 0.269637
1105.51 0.268606
1107.34 0.268816
1109.17 0.267746
1111 0.269367
1112.82 0.266982
1114.64 0.26737
1116.47 0.266097
1118.29 0.270197
1120.11 0.272116
1121.93 0.267092
1123.75 0.270287
1125.56 0.273085
1127.38 0.271299
1129.2 0.26817
1131.01 0.271511
1132.82 0.270561
1134.63 0.268864
1136.44 0.270524
1138.25 0.267702
1140.06 0.267334
1141.87 0.268683
1143.67 0.266615
1145.48 0.266588
1147.28 0.267748
1149.08 0.262296
1150.89 0.264809
1152.69 0.268017
1154.49 0.263132
1156.28 0.264782
1158.08 0.265567
1159.88 0.261419
1161.67 0.264536
1163.46 0.267817
1165.26 0.261124
1167.05 0.262612
1168.84 0.264793
1170.63 0.266533
1172.42 0.262578
1174.2 0.26171
1175.99 0.263406
1177.77 0.263914
1179.56 0.264098
1181.34 0.266537
1183.12 0.265855
1184.9 0.265531
1186.68 0.266443
1188.46 0.265279
1190.24 0.266943
1192.01 0.267448
1193.79 0.270815
1195.56 0.280953
1197.33 0.287845
1199.1 0.29464
1200.87 0.299582
1202.64 0.301116
1204.41 0.291526
1206.18 0.28189
1207.95 0.274095
1209.71 0.269586
1211.47 0.266705
1213.24 0.266178
1215 0.263973
1216.76 0.267876
1218.52 0.265671
1220.28 0.268622
1222.04 0.264567
1223.79 0.264666
1225.55 0.26833
1227.3 0.265139
1229.05 0.26703
1230.81 0.267767
1232.56 0.265047
1234.31 0.269413
1236.05 0.275365
1237.8 0.2773
1239.55 0.278575
1241.29 0.286133
1243.04 0.291119
1244.78 0.291957
1246.52 0.297705
1248.27 0.293748
1250.01 0.291536
1251.75 0.285862
1253.48 0.277269
1255.22 0.269466
1256.96 0.264984
1258.69 0.264974
1260.42 0.26283
1262.16 0.263567
1263.89 0.262041
1265.62 0.263906
1267.35 0.264932
1269.08 0.262577
1270.8 0.259583
1272.53 0.263149
1274.26 0.261456
1275.98 0.260573
1277.7 0.258431
1279.42 0.264114
1281.15 0.262773
1282.87 0.263581
1284.58 0.26612
1286.3 0.266956
1288.02 0.267146
1289.73 0.264386
1291.45 0.26801
1293.16 0.267439
1294.88 0.268953
1296.59 0.271291
1298.3 0.274567
1300.01 0.278021
1301.71 0.283642
1303.42 0.283052
1305.13 0.285647
1306.83 0.289109
1308.54 0.29099
1310.24 0.291693
1311.94 0.292245
1313.64 0.291473
1315.34 0.289011
1317.04 0.289311
1318.74 0.284427
1320.44 0.286766
1322.13 0.285524
1323.83 0.282216
1325.52 0.290329
1327.21 0.292803
1328.91 0.293051
1330.6 0.303566
1332.29 0.315383
1333.98 0.326885
1335.66 0.350047
1337.35 0.370614
1339.03 0.40307
1340.72 0.422842
1342.4 0.441578
1344.08 0.462991
1345.77 0.507222
1347.45 0.581828
1349.13 0.678018
1350.8 0.770071
1352.48 0.821017
1354.16 0.809322
1355.83 0.74365
1357.51 0.662832
1359.18 0.574998
1360.85 0.514934
1362.52 0.466197
1364.19 0.437824
1365.86 0.412448
1367.53 0.398385
1369.2 0.384919
1370.86 0.386778
1372.53 0.390052
1374.19 0.402956
1375.86 0.406361
1377.52 0.40625
1379.18 0.401543
1380.84 0.379084
1382.5 0.358429
1384.15 0.34589
1385.81 0.337914
1387.47 0.335434
1389.12 0.331071
1390.78 0.326717
1392.43 0.313213
1394.08 0.305286
1395.73 0.294453
1397.38 0.287949
1399.03 0.281916
1400.68 0.279371
1402.33 0.273087
1403.97 0.271877
1405.62 0.270768
1407.26 0.270089
1408.9 0.267467
1410.54 0.267278
1412.19 0.264359
1413.83 0.265513
1415.46 0.27115
1417.1 0.267533
1418.74 0.262922
1420.37 0.262857
1422.01 0.26452
1423.64 0.265919
1425.28 0.259851
1426.91 0.262361
1428.54 0.259006
1430.17 0.261925
1431.8 0.258684
1433.43 0.257816
1435.05 0.255428
1436.68 0.254281
1438.3 0.255214
1439.93 0.256311
1441.55 0.255962
1443.17 0.251476
1444.79 0.254432
1446.41 0.252695
1448.03 0.251491
1449.65 0.255523
1451.27 0.253434
1452.88 0.250459
1454.5 0.252211
1456.11 0.251084
1457.73 0.251588
1459.34 0.250064
1460.95 0.249842
1462.56 0.247861
1464.17 0.253294
1465.78 0.249128
1467.39 0.246127
1468.99 0.246361
1470.6 0.24787
1472.2 0.244707
1473.81 0.24842
1475.41 0.248889
1477.01 0.250313
1478.61 0.249108
1480.21 0.251953
1481.81 0.249575
1483.41 0.250253
1485 0.247006
1486.6 0.25005
1488.19 0.249906
1489.79 0.247725
1491.38 0.249842
1492.97 0.246582
1494.56 0.248077
1496.15 0.247377
1497.74 0.246708
1499.33 0.249825
1500.92 0.243554
1502.5 0.246033
1504.09 0.249703
1505.67 0.245498
1507.25 0.247453
1508.84 0.250465
1510.42 0.247904
1512 0.247876
1513.58 0.250391
1515.16 0.248189
1516.73 0.250024
1518.31 0.248757
1519.89 0.249728
1521.46 0.25183
1523.03 0.251904
1524.61 0.255147
1526.18 0.251792
1527.75 0.254545
1529.32 0.257115
1530.89 0.263271
1532.46 0.26632
1534.02 0.274297
1535.59 0.284029
1537.16 0.296975
1538.72 0.314862
1540.28 0.327754
1541.85 0.342582
1543.41 0.35006
1544.97 0.346849
1546.53 0.338395
1548.09 0.32974
1549.64 0.319332
1551.2 0.304752
1552.76 0.305408
1554.31 0.290991
1555.86 0.288075
1557.42 0.281884
1558.97 0.284375
1560.52 0.277632
1562.07 0.272875
1563.62 0.271054
1565.17 0.267204
1566.72 0.25613
1568.26 0.253833
1569.81 0.249084
1571.35 0.246171
1572.9 0.245084
1574.44 0.246677
1575.98 0.242327
1577.52 0.246022
1579.06 0.245931
1580.6 0.246003
1582.14 0.249705
1583.68 0.248908
1585.21 0.251765
1586.75 0.257378
1588.28 0.265859
1589.82 0.270926
1591.35 0.282344
1592.88 0.294086
1594.41 0.30306
1595.94 0.31796
1597.47 0.316915
1599 0.314381
1600.53 0.303454
1602.05 0.290119
1603.58 0.276022
1605.1 0.262806
1606.62 0.255885
1608.15 0.25233
1609.67 0.246332
1611.19 0.239791
1612.71 0.239612
1614.23 0.235454
1615.75 0.237304
1617.26 0.23238
1618.78 0.232821
1620.29 0.234422
1621.81 0.233901
1623.32 0.239045
1624.84 0.236319
1626.35 0.236966
1627.86 0.237582
1629.37 0.237182
1630.88 0.234743
1632.38 0.23411
1633.89 0.23037
1635.4 0.229917
1636.9 0.227205
1638.41 0.223655
1639.91 0.224419
1641.41 0.222164
1642.92 0.221875
1644.42 0.219176
1645.92 0.221521
1647.42 0.218618
1648.91 0.220468
1650.41 0.218358
1651.91 0.21808
1653.4 0.220188
1654.9 0.218272
1656.39 0.216916
1657.88 0.217103
1659.38 0.215816
1660.87 0.213456
1662.36 0.214995
1663.85 0.213926
1665.34 0.215851
1666.82 0.213809
1668.31 0.215181
1669.79 0.210638
1671.28 0.215574
1672.76 0.212405
1674.25 0.209034
1675.73 0.206993
1677.21 0.207917
1678.69 0.206345
1680.17 0.207612
1681.65 0.205312
1683.13 0.205112
1684.6 0.206385
1686.08 0.205926
1687.55 0.202542
1689.03 0.206291
1690.5 0.206984
1691.97 0.203859
1693.45 0.204895
1694.92 0.205987
1696.39 0.210051
1697.86 0.207444
1699.32 0.211595
1700.79 0.209874
1702.26 0.20786
1703.72 0.211012
1705.19 0.20844
1706.65 0.209863
1708.11 0.209145
1709.58 0.212519
1711.04 0.20448
1712.5 0.210165
1713.96 0.20376
1715.42 0.208613
1716.87 0.210325
1718.33 0.207645
1719.79 0.205197
1721.24 0.209508
1722.7 0.206563
1724.15 0.207546
1725.6 0.205391
1727.05 0.203223
1728.5 0.202305
1729.95 0.204795
1731.4 0.203501
1732.85 0.203657
1734.3 0.204652
1735.75 0.201805
1737.19 0.201311
1738.64 0.201461
1740.08 0.201916
1741.52 0.201426
1742.96 0.202536
1744.41 0.2029
1745.85 0.197717
1747.29 0.197607
1748.72 0.201066
1750.16 0.20119
1751.6 0.204055
1753.04 0.200296
1754.47 0.199257
1755.91 0.200992
1757.34 0.201716
1758.77 0.198932
1760.2 0.200298
1761.64 0.203126
1763.07 0.200111
1764.5 0.201229
1765.92 0.201516
1767.35 0.199214
1768.78 0.19968
1770.2 0.200919
1771.63 0.195919
1773.05 0.200976
1774.48 0.197408
1775.9 0.198185
1777.32 0.1973
1778.74 0.193444
1780.16 0.192386
1781.58 0.194609
1783 0.194706
1784.42 0.193542
1785.84 0.195865
1787.25 0.194057
1788.67 0.194512
1790.08 0.190964
1791.49 0.193665
1792.91 0.196314
1794.32 0.192837
1795.73 0.195992
1797.14 0.195655
1798.55 0.195198
1799.96 0.195896
1801.37 0.199213
1802.77 0.198269
1804.18 0.196614
1805.58 0.20027
1806.99 0.200847
1808.39 0.201622
1809.79 0.201427
1811.2 0.201188
1812.6 0.19861
1814 0.200355
1815.4 0.204305
1816.79 0.197949
1818.19 0.199647
1819.59 0.200019
1820.98 0.202391
1822.38 0.196583
1823.77 0.202126
1825.17 0.200746
1826.56 0.200299
1827.95 0.202022
1829.34 0.197468
1830.73 0.199872
1832.12 0.198378
1833.51 0.197598
1834.9 0.19816
1836.29 0.196266
1837.67 0.196566
1839.06 0.196641
1840.44 0.196083
1841.83 0.195488
1843.21 0.193592
1844.59 0.193823
1845.97 0.195848
1847.35 0.194159
1848.73 0.193733
1850.11 0.18856
1851.49 0.186267
1852.87 0.187155
1854.24 0.186574
1855.62 0.186217
1856.99 0.182458
1858.37 0.188452
1859.74 0.189232
1861.11 0.18304
1862.48 0.181759
1863.85 0.185287
1865.22 0.183189
1866.59 0.183114
1867.96 0.182431
1869.33 0.184478
1870.7 0.185659
1872.06 0.182575
1873.43 0.184589
1874.79 0.181107
1876.16 0.174635
1877.52 0.176642
1878.88 0.17696
1880.24 0.177471
1881.6 0.173618
1882.96 0.18002
1884.32 0.178591
1885.68 0.176207
1887.03 0.17382
1888.39 0.175511
1889.75 0.175936
1891.1 0.172202
1892.45 0.174944
1893.81 0.171695
1895.16 0.172612
1896.51 0.174479
1897.86 0.175651
1899.21 0.175828
1900.56 0.174441
1901.91 0.177514
1903.26 0.175592
1904.6 0.175671
1905.95 0.175994
1907.29 0.180095
1908.64 0.179915
1909.98 0.177727
1911.33 0.177842
1912.67 0.178458
1914.01 0.179618
1915.35 0.177636
1916.69 0.175851
1918.03 0.177605
1919.37 0.175745
1920.7 0.179659
1922.04 0.180622
1923.38 0.179807
1924.71 0.176737
1926.04 0.181929
1927.38 0.176705
1928.71 0.176276
1930.04 0.182296
1931.37 0.179827
1932.7 0.176481
1934.03 0.180383
1935.36 0.181538
1936.69 0.180553
1938.02 0.178715
1939.34 0.176112
1940.67 0.17932
1941.99 0.178829
1943.32 0.178166
1944.64 0.17849
1945.96 0.176848
1947.28 0.177716
1948.6 0.173866
1949.92 0.173358
1951.24 0.169962
1952.56 0.172504
1953.88 0.172381
1955.2 0.167368
1956.51 0.16862
1957.83 0.166204
1959.14 0.167868
1960.46 0.165691
1961.77 0.165689
1963.08 0.162679
1964.39 0.166345
1965.71 0.167457
1967.02 0.167147
1968.33 0.168502
1969.63 0.166495
1970.94 0.163061
