scanname 扫描252
timestamp 1/1/1970 00:21
ccdbias 1678.72
ccdgain 2.46132
sigmaread 11.4449
laserwavenum -0.537448
wavenumcorrection -0.810353
scancount 1
totalexposurems 1000
singleexposurems 1000
measurementstate Unknown
scanmode Identification
snr 6.75563 6.75563 6.75563
replacelist 0
peaks 21
290.639 0.256622 0 3.01466 0.000287252
356.454 0.252589 0 2.99738 0.000293475
415.769 0.234387 0 1.04574 0.000106742
492.425 0.22758 0 0.0809635 2.76639e-05
568.196 0.216863 0 0.276944 5.91869e-05
611.478 0.214112 0 0.313892 6.37509e-05
637.412 0.207489 0 0.154301 2.30512e-05
807.222 0.216091 0 5.87161 0.000672775
840.604 0.196338 0 1.94803 0.00029141
930.74 0.185347 0 1.43131 0.000256918
952.991 0.175353 0 0.172854 6.95092e-05
1079.3 0.170271 0 0.558141 0.000111964
1201.91 0.163944 0 0.581519 0.000126054
1247.47 0.163959 0 0.659203 0.000141523
1309.71 0.162255 0 0.400241 7.92701e-05
1353.09 0.312948 0 10.1206 0.0022237
1377.36 0.190591 0 0.702141 0.000289852
1542.63 0.175314 0 1.45776 0.000541841
1597.37 0.160145 0 1.13312 0.000438436
1940.28 0.103956 0 0.143428 3.13152e-05
2877.65 0.124778 0 0.361888 0.00334349
finalresult No match found 1A14782	9.01894e-10
spectrum 2048
-91.2464 0.00748909
-88.6484 0.0079349
-86.052 0.306479
-83.4575 0.28012
-80.8645 0.272448
-78.2734 0.327792
-75.6839 0.336271
-73.096 0.376269
-70.51 0.323596
-67.9256 0.353926
-65.3429 0.357475
-62.7619 0.380531
-60.1827 0.363546
-57.605 0.426946
-55.0291 0.387312
-52.4549 0.396306
-49.8824 0.452835
-47.3117 0.443567
-44.7425 0.448393
-42.1751 0.48756
-39.6093 0.52304
-37.0452 0.524493
-34.4829 0.521977
-31.9221 0.549736
-29.3631 0.547425
-26.8057 0.553509
-24.2502 0.571516
-21.6962 0.58429
-19.1438 0.618098
-16.5932 0.645501
-14.0442 0.693816
-11.497 0.785205
-8.95141 0.883433
-6.40756 0.429664
-3.86528 0.163381
-1.32462 0.133193
1.21422 0.133695
3.75156 0.134274
6.28706 0.143435
8.821 0.381114
11.3533 0.358876
13.8839 0.431408
16.4129 0.519851
18.9401 0.544592
21.4657 0.499934
23.9897 0.463652
26.512 0.460494
29.0327 0.443676
31.5517 0.452709
34.069 0.451777
36.5847 0.481004
39.0988 0.440098
41.6111 0.416545
44.1219 0.401941
46.631 0.383462
49.1385 0.362831
51.6443 0.349233
54.1484 0.3591
56.651 0.32845
59.1519 0.322495
61.6511 0.30701
64.1487 0.280876
66.6447 0.28679
69.1391 0.267008
71.6318 0.292584
74.1228 0.328209
76.6122 0.304089
79.1001 0.348386
81.5862 0.314704
84.0708 0.319451
86.5537 0.30875
89.035 0.325991
91.5147 0.259233
93.9927 0.277838
96.4692 0.285088
98.9439 0.314777
101.417 0.238236
103.888 0.240413
106.358 0.24907
108.827 0.264988
111.293 0.260959
113.758 0.22309
116.222 0.231113
118.684 0.241989
121.144 0.240523
123.603 0.256489
126.06 0.265129
128.515 0.247657
130.969 0.251156
133.421 0.248738
135.872 0.24966
138.321 0.242102
140.768 0.239422
143.214 0.245777
145.658 0.241007
148.101 0.242756
150.542 0.241122
152.981 0.241646
155.419 0.233697
157.856 0.237419
160.29 0.238004
162.723 0.236922
165.155 0.237094
167.585 0.236454
170.013 0.234014
172.44 0.232997
174.865 0.233291
177.288 0.237367
179.71 0.236415
182.131 0.238157
184.549 0.236272
186.967 0.239502
189.382 0.23759
191.796 0.238559
194.209 0.238126
196.62 0.238197
199.029 0.236346
201.437 0.237382
203.843 0.240937
206.248 0.241665
208.651 0.247236
211.052 0.252272
213.452 0.26054
215.851 0.264236
218.247 0.265584
220.643 0.261261
223.036 0.257032
225.428 0.252541
227.819 0.252731
230.208 0.256687
232.595 0.258804
234.981 0.260078
237.365 0.257416
239.748 0.253452
242.129 0.249706
244.509 0.245742
246.887 0.243319
249.264 0.241193
251.639 0.241372
254.012 0.241896
256.384 0.238396
258.755 0.238828
261.124 0.237443
263.491 0.236938
265.857 0.237862
268.221 0.236837
270.583 0.236298
272.945 0.238288
275.304 0.235315
277.662 0.236975
280.019 0.238265
282.374 0.238272
284.727 0.245374
287.079 0.250495
289.43 0.258352
291.778 0.257677
294.126 0.252161
296.472 0.246657
298.816 0.240681
301.159 0.238598
303.5 0.236693
305.84 0.236754
308.178 0.234694
310.515 0.237336
312.85 0.234712
315.183 0.235812
317.515 0.233212
319.846 0.23296
322.175 0.232673
324.503 0.235333
326.829 0.234084
329.153 0.234686
331.477 0.234767
333.798 0.235276
336.118 0.233935
338.437 0.233215
340.754 0.232447
343.069 0.232607
345.383 0.235738
347.696 0.235916
350.007 0.239224
352.316 0.247207
354.624 0.255021
356.931 0.254222
359.236 0.245823
361.539 0.244014
363.841 0.238463
366.142 0.235421
368.441 0.234608
370.739 0.235096
373.035 0.232132
375.329 0.231307
377.622 0.228226
379.914 0.229521
382.204 0.229781
384.493 0.229208
386.78 0.227718
389.065 0.227392
391.35 0.227242
393.632 0.226726
395.914 0.230456
398.193 0.229486
400.472 0.22925
402.749 0.230695
405.024 0.232076
407.298 0.227624
409.57 0.227035
411.841 0.232576
414.111 0.237972
416.378 0.236103
418.645 0.2334
420.91 0.228187
423.174 0.225742
425.436 0.227568
427.696 0.225386
429.956 0.223721
432.213 0.22518
434.47 0.222731
436.724 0.22416
438.978 0.224094
441.23 0.224119
443.48 0.22258
445.729 0.221978
447.977 0.223249
450.223 0.224145
452.467 0.223035
454.71 0.225233
456.952 0.224715
459.192 0.222249
461.431 0.224069
463.669 0.225436
465.905 0.227309
468.139 0.22534
470.372 0.223704
472.604 0.226732
474.834 0.226442
477.063 0.22633
479.29 0.224277
481.516 0.2267
483.74 0.225119
485.963 0.228116
488.185 0.226369
490.405 0.225671
492.624 0.227531
494.841 0.227314
497.057 0.230126
499.271 0.225114
501.484 0.225352
503.695 0.22253
505.906 0.223418
508.114 0.220137
510.322 0.221757
512.527 0.218678
514.732 0.21722
516.935 0.218034
519.136 0.216186
521.337 0.217164
523.535 0.21837
525.733 0.215894
527.929 0.219226
530.123 0.217662
532.316 0.218523
534.508 0.219637
536.698 0.219094
538.887 0.216596
541.074 0.215351
543.26 0.217203
545.445 0.215515
547.628 0.214355
549.81 0.215839
551.99 0.214974
554.17 0.215413
556.347 0.2159
558.523 0.214565
560.698 0.214699
562.872 0.213889
565.044 0.214089
567.214 0.21888
569.383 0.218424
571.551 0.215157
573.718 0.215035
575.883 0.212479
578.046 0.211672
580.209 0.212049
582.37 0.211751
584.529 0.210509
586.687 0.210563
588.844 0.210291
590.999 0.210223
593.153 0.20967
595.306 0.211092
597.457 0.212779
599.607 0.211847
601.755 0.211157
603.902 0.211969
606.048 0.212457
608.192 0.21406
610.335 0.2129
612.477 0.213063
614.617 0.213865
616.756 0.213923
618.893 0.210664
621.029 0.20734
623.164 0.20559
625.297 0.204838
627.429 0.208427
629.56 0.205834
631.689 0.20652
633.817 0.205902
635.943 0.209034
638.068 0.210255
640.192 0.205052
642.314 0.20721
644.435 0.206012
646.555 0.205063
648.674 0.204364
650.791 0.203735
652.906 0.201134
655.02 0.201174
657.133 0.20181
659.245 0.202653
661.355 0.201127
663.464 0.202636
665.571 0.201966
667.678 0.201644
669.782 0.202893
671.886 0.20217
673.988 0.200865
676.089 0.201164
678.188 0.198515
680.286 0.199773
682.383 0.19977
684.479 0.201386
686.573 0.201612
688.665 0.200814
690.757 0.20243
692.847 0.202656
694.936 0.197787
697.023 0.199164
699.109 0.197744
701.194 0.19986
703.277 0.196521
705.359 0.196204
707.44 0.197276
709.52 0.197768
711.598 0.195632
713.674 0.196643
715.75 0.196535
717.824 0.196167
719.897 0.194116
721.968 0.197677
724.038 0.195032
726.107 0.19303
728.175 0.194631
730.241 0.195512
732.306 0.195455
734.369 0.193674
736.432 0.193306
738.493 0.194182
740.552 0.193989
742.611 0.191972
744.668 0.194678
746.723 0.193588
748.778 0.194209
750.831 0.194855
752.883 0.190973
754.933 0.190943
756.982 0.190262
759.03 0.191481
761.076 0.189255
763.122 0.191193
765.166 0.19294
767.208 0.190331
769.25 0.190866
771.29 0.190519
773.328 0.189574
775.366 0.188279
777.402 0.187413
779.437 0.188827
781.471 0.190758
783.503 0.187277
785.534 0.184665
787.564 0.18558
789.592 0.186372
791.619 0.186782
793.645 0.188375
795.669 0.186167
797.693 0.188717
799.715 0.18816
801.735 0.19435
803.755 0.209009
805.773 0.216351
807.79 0.217011
809.805 0.210545
811.82 0.197818
813.833 0.189462
815.844 0.187767
817.855 0.185301
819.864 0.184626
821.872 0.182414
823.879 0.185073
825.884 0.183579
827.888 0.182309
829.891 0.181377
831.893 0.183542
833.893 0.185191
835.892 0.189457
837.89 0.195149
839.886 0.19537
841.881 0.196144
843.875 0.193876
845.868 0.187062
847.859 0.181539
849.85 0.183771
851.839 0.182592
853.826 0.181998
855.813 0.180065
857.798 0.182708
859.782 0.182534
861.764 0.1802
863.746 0.178941
865.726 0.177643
867.705 0.179107
869.682 0.176824
871.659 0.179395
873.634 0.176921
875.608 0.178276
877.58 0.17584
879.552 0.176502
881.522 0.177392
883.491 0.175797
885.459 0.178279
887.425 0.179292
889.39 0.177545
891.354 0.174863
893.317 0.175153
895.278 0.177909
897.238 0.175259
899.197 0.174001
901.155 0.172942
903.112 0.17551
905.067 0.176579
907.021 0.176572
908.974 0.174917
910.925 0.174083
912.876 0.1759
914.825 0.173692
916.773 0.175265
918.719 0.171872
920.665 0.174438
922.609 0.174972
924.552 0.175271
926.494 0.181268
928.434 0.183842
930.374 0.184677
932.312 0.185546
934.249 0.181662
936.184 0.17788
938.119 0.177088
940.052 0.172374
941.984 0.174528
943.915 0.173742
945.844 0.170699
947.773 0.175077
949.7 0.173464
951.626 0.172889
953.55 0.1759
955.474 0.176621
957.396 0.173186
959.317 0.172813
961.237 0.172018
963.156 0.166947
965.073 0.169983
966.99 0.167518
968.905 0.168498
970.819 0.168014
972.731 0.167757
974.643 0.168642
976.553 0.168321
978.462 0.167957
980.37 0.167972
982.277 0.167712
984.182 0.166935
986.086 0.169638
987.989 0.168443
989.891 0.166882
991.792 0.168266
993.691 0.16791
995.59 0.165474
997.487 0.166435
999.383 0.167433
1001.28 0.165958
1003.17 0.16494
1005.06 0.164355
1006.95 0.165708
1008.84 0.164212
1010.73 0.165267
1012.62 0.164814
1014.51 0.164216
1016.39 0.163805
1018.28 0.165512
1020.16 0.16566
1022.04 0.164671
1023.92 0.164937
1025.8 0.163968
1027.68 0.166374
1029.56 0.163637
1031.43 0.165346
1033.31 0.164139
1035.18 0.161582
1037.05 0.160656
1038.92 0.161759
1040.79 0.162644
1042.66 0.163497
1044.53 0.163159
1046.4 0.160651
1048.26 0.163863
1050.13 0.162635
1051.99 0.162544
1053.85 0.163735
1055.71 0.161914
1057.57 0.160038
1059.43 0.162995
1061.29 0.162249
1063.14 0.162341
1065 0.162598
1066.85 0.161304
1068.7 0.163713
1070.56 0.163739
1072.41 0.163765
1074.26 0.168928
1076.1 0.168681
1077.95 0.170444
1079.8 0.17137
1081.64 0.169825
1083.48 0.165619
1085.33 0.166338
1087.17 0.164358
1089.01 0.160193
1090.85 0.161275
1092.68 0.15978
1094.52 0.161052
1096.35 0.160989
1098.19 0.161192
1100.02 0.159123
1101.85 0.160792
1103.68 0.158874
1105.51 0.159039
1107.34 0.160727
1109.17 0.159027
1111 0.160605
1112.82 0.159561
1114.64 0.157812
1116.47 0.159363
1118.29 0.159231
1120.11 0.157953
1121.93 0.159679
1123.75 0.160875
1125.56 0.158957
1127.38 0.160969
1129.2 0.160191
1131.01 0.157798
1132.82 0.157868
1134.63 0.160029
1136.44 0.156533
1138.25 0.156973
1140.06 0.156699
1141.87 0.156212
1143.67 0.159812
1145.48 0.157196
1147.28 0.156699
1149.08 0.157594
1150.89 0.157645
1152.69 0.154874
1154.49 0.1561
1156.28 0.158764
1158.08 0.156474
1159.88 0.155322
1161.67 0.157046
1163.46 0.155828
1165.26 0.154521
1167.05 0.154648
1168.84 0.153572
1170.63 0.15605
1172.42 0.155741
1174.2 0.155578
1175.99 0.157467
1177.77 0.156131
1179.56 0.15349
1181.34 0.156652
1183.12 0.156955
1184.9 0.156295
1186.68 0.156381
1188.46 0.157937
1190.24 0.156714
1192.01 0.154797
1193.79 0.158372
1195.56 0.158534
1197.33 0.160783
1199.1 0.164199
1200.87 0.164032
1202.64 0.163484
1204.41 0.164114
1206.18 0.160167
1207.95 0.158617
1209.71 0.157289
1211.47 0.154672
1213.24 0.154648
1215 0.155682
1216.76 0.15585
1218.52 0.15575
1220.28 0.153198
1222.04 0.156507
1223.79 0.156244
1225.55 0.156844
1227.3 0.154493
1229.05 0.152692
1230.81 0.155805
1232.56 0.154149
1234.31 0.155107
1236.05 0.155993
1237.8 0.157401
1239.55 0.158339
1241.29 0.158727
1243.04 0.160658
1244.78 0.162019
1246.52 0.166778
1248.27 0.163059
1250.01 0.161549
1251.75 0.161463
1253.48 0.159504
1255.22 0.155321
1256.96 0.156255
1258.69 0.153797
1260.42 0.152574
1262.16 0.156667
1263.89 0.154856
1265.62 0.154963
1267.35 0.151497
1269.08 0.152854
1270.8 0.153912
1272.53 0.152512
1274.26 0.153789
1275.98 0.153238
1277.7 0.151727
1279.42 0.155213
1281.15 0.153539
1282.87 0.156153
1284.58 0.153188
1286.3 0.155132
1288.02 0.155725
1289.73 0.154938
1291.45 0.153588
1293.16 0.155045
1294.88 0.156439
1296.59 0.157425
1298.3 0.157148
1300.01 0.155888
1301.71 0.157908
1303.42 0.159063
1305.13 0.160321
1306.83 0.161029
1308.54 0.161315
1310.24 0.162012
1311.94 0.16151
1313.64 0.162879
1315.34 0.160091
1317.04 0.158704
1318.74 0.154458
1320.44 0.157065
1322.13 0.159477
1323.83 0.160978
1325.52 0.161528
1327.21 0.160192
1328.91 0.161539
1330.6 0.162407
1332.29 0.167677
1333.98 0.170779
1335.66 0.175355
1337.35 0.185066
1339.03 0.193275
1340.72 0.197366
1342.4 0.205825
1344.08 0.212064
1345.77 0.229886
1347.45 0.248084
1349.13 0.269258
1350.8 0.299532
1352.48 0.314325
1354.16 0.315208
1355.83 0.29626
1357.51 0.267213
1359.18 0.244552
1360.85 0.224543
1362.52 0.208033
1364.19 0.195229
1365.86 0.191995
1367.53 0.187468
1369.2 0.185282
1370.86 0.18384
1372.53 0.183161
1374.19 0.188079
1375.86 0.189722
1377.52 0.18998
1379.18 0.189345
1380.84 0.187775
1382.5 0.183515
1384.15 0.176646
1385.81 0.172705
1387.47 0.172439
1389.12 0.172534
1390.78 0.168369
1392.43 0.164281
1394.08 0.161805
1395.73 0.158213
1397.38 0.155213
1399.03 0.155499
1400.68 0.152606
1402.33 0.153508
1403.97 0.155565
1405.62 0.154114
1407.26 0.153059
1408.9 0.151204
1410.54 0.150561
1412.19 0.151538
1413.83 0.153783
1415.46 0.153512
1417.1 0.149105
1418.74 0.151095
1420.37 0.150707
1422.01 0.152734
1423.64 0.151525
1425.28 0.150029
1426.91 0.147157
1428.54 0.149811
1430.17 0.147677
1431.8 0.149477
1433.43 0.14984
1435.05 0.149565
1436.68 0.148951
1438.3 0.148617
1439.93 0.146573
1441.55 0.150441
1443.17 0.14974
1444.79 0.148601
1446.41 0.14928
1448.03 0.147104
1449.65 0.146405
1451.27 0.14756
1452.88 0.144894
1454.5 0.143819
1456.11 0.145817
1457.73 0.145529
1459.34 0.146412
1460.95 0.145018
1462.56 0.144867
1464.17 0.145396
1465.78 0.147355
1467.39 0.143915
1468.99 0.145324
1470.6 0.14512
1472.2 0.142903
1473.81 0.143952
1475.41 0.143821
1477.01 0.145233
1478.61 0.144213
1480.21 0.142644
1481.81 0.145034
1483.41 0.145353
1485 0.146489
1486.6 0.143002
1488.19 0.143958
1489.79 0.142413
1491.38 0.142933
1492.97 0.142566
1494.56 0.147572
1496.15 0.142793
1497.74 0.146112
1499.33 0.145461
1500.92 0.145998
1502.5 0.142322
1504.09 0.143153
1505.67 0.141222
1507.25 0.141885
1508.84 0.142436
1510.42 0.14419
1512 0.144053
1513.58 0.143016
1515.16 0.144506
1516.73 0.142172
1518.31 0.143265
1519.89 0.145989
1521.46 0.142605
1523.03 0.14406
1524.61 0.146855
1526.18 0.146025
1527.75 0.143575
1529.32 0.147765
1530.89 0.147727
1532.46 0.1459
1534.02 0.148274
1535.59 0.150595
1537.16 0.160156
1538.72 0.164533
1540.28 0.173487
1541.85 0.174944
1543.41 0.176604
1544.97 0.170433
1546.53 0.167658
1548.09 0.16597
1549.64 0.164062
1551.2 0.159888
1552.76 0.154991
1554.31 0.155392
1555.86 0.154336
1557.42 0.150442
1558.97 0.149519
1560.52 0.149857
1562.07 0.150115
1563.62 0.145045
1565.17 0.146438
1566.72 0.143538
1568.26 0.140271
1569.81 0.138542
1571.35 0.141857
1572.9 0.138473
1574.44 0.139559
1575.98 0.142414
1577.52 0.138119
1579.06 0.141575
1580.6 0.139871
1582.14 0.141067
1583.68 0.140133
1585.21 0.140491
1586.75 0.140339
1588.28 0.144543
1589.82 0.147923
1591.35 0.144588
1592.88 0.149572
1594.41 0.158583
1595.94 0.159045
1597.47 0.159586
1599 0.158332
1600.53 0.156307
1602.05 0.152562
1603.58 0.1459
1605.1 0.14462
1606.62 0.141041
1608.15 0.140408
1609.67 0.137025
1611.19 0.13523
1612.71 0.137147
1614.23 0.134231
1615.75 0.134471
1617.26 0.134161
1618.78 0.135557
1620.29 0.133283
1621.81 0.132073
1623.32 0.13322
1624.84 0.134287
1626.35 0.132485
1627.86 0.133261
1629.37 0.133355
1630.88 0.131849
1632.38 0.129156
1633.89 0.132229
1635.4 0.13414
1636.9 0.129464
1638.41 0.128802
1639.91 0.129391
1641.41 0.130458
1642.92 0.129351
1644.42 0.129652
1645.92 0.127284
1647.42 0.125595
1648.91 0.12776
1650.41 0.127152
1651.91 0.126829
1653.4 0.128333
1654.9 0.126432
1656.39 0.124261
1657.88 0.127476
1659.38 0.127078
1660.87 0.12583
1662.36 0.124977
1663.85 0.126656
1665.34 0.125367
1666.82 0.12354
1668.31 0.125179
1669.79 0.125739
1671.28 0.123792
1672.76 0.123968
1674.25 0.126415
1675.73 0.123886
1677.21 0.118464
1678.69 0.12126
1680.17 0.121006
1681.65 0.118878
1683.13 0.122166
1684.6 0.120549
1686.08 0.119542
1687.55 0.117947
1689.03 0.118523
1690.5 0.120137
1691.97 0.119801
1693.45 0.119923
1694.92 0.119559
1696.39 0.119327
1697.86 0.122145
1699.32 0.121762
1700.79 0.122596
1702.26 0.122874
1703.72 0.121951
1705.19 0.120519
1706.65 0.121984
1708.11 0.122435
1709.58 0.12338
1711.04 0.121289
1712.5 0.117853
1713.96 0.120022
1715.42 0.122068
1716.87 0.123356
1718.33 0.121496
1719.79 0.120586
1721.24 0.119895
1722.7 0.117607
1724.15 0.119517
1725.6 0.120329
1727.05 0.117703
1728.5 0.121863
1729.95 0.12231
1731.4 0.120248
1732.85 0.116816
1734.3 0.121108
1735.75 0.11968
1737.19 0.121285
1738.64 0.114908
1740.08 0.116855
1741.52 0.117446
1742.96 0.116481
1744.41 0.116805
1745.85 0.117926
1747.29 0.117285
1748.72 0.11617
1750.16 0.117266
1751.6 0.115972
1753.04 0.115893
1754.47 0.118701
1755.91 0.118979
1757.34 0.11829
1758.77 0.117472
1760.2 0.119107
1761.64 0.117181
1763.07 0.116896
1764.5 0.119275
1765.92 0.114917
1767.35 0.116608
1768.78 0.116137
1770.2 0.114266
1771.63 0.114872
1773.05 0.113079
1774.48 0.117279
1775.9 0.116318
1777.32 0.109692
1778.74 0.117082
1780.16 0.113975
1781.58 0.113095
1783 0.112176
1784.42 0.111327
1785.84 0.111783
1787.25 0.111982
1788.67 0.113905
1790.08 0.111439
1791.49 0.111125
1792.91 0.111471
1794.32 0.111827
1795.73 0.113885
1797.14 0.113605
1798.55 0.114016
1799.96 0.115352
1801.37 0.11621
1802.77 0.118377
1804.18 0.113272
1805.58 0.116751
1806.99 0.114689
1808.39 0.116554
1809.79 0.115779
1811.2 0.117842
1812.6 0.1186
1814 0.119915
1815.4 0.112814
1816.79 0.118084
1818.19 0.117846
1819.59 0.118004
1820.98 0.115574
1822.38 0.118079
1823.77 0.115786
1825.17 0.117507
1826.56 0.118191
1827.95 0.114913
1829.34 0.112491
1830.73 0.118308
1832.12 0.116523
1833.51 0.112843
1834.9 0.113602
1836.29 0.11428
1837.67 0.115581
1839.06 0.114652
1840.44 0.112657
1841.83 0.111886
1843.21 0.114198
1844.59 0.114087
1845.97 0.111334
1847.35 0.108756
1848.73 0.110439
1850.11 0.110644
1851.49 0.109637
1852.87 0.108383
1854.24 0.106953
1855.62 0.110033
1856.99 0.11139
1858.37 0.108527
1859.74 0.10621
1861.11 0.107826
1862.48 0.107046
1863.85 0.104795
1865.22 0.107973
1866.59 0.102625
1867.96 0.101279
1869.33 0.102963
1870.7 0.107057
1872.06 0.10688
1873.43 0.104685
1874.79 0.104244
1876.16 0.103035
1877.52 0.102275
1878.88 0.102602
1880.24 0.105667
1881.6 0.103821
1882.96 0.102352
1884.32 0.102146
1885.68 0.099944
1887.03 0.100273
1888.39 0.103986
1889.75 0.0998133
1891.1 0.100293
1892.45 0.0976035
1893.81 0.0996656
1895.16 0.100643
1896.51 0.104864
1897.86 0.100756
1899.21 0.102929
1900.56 0.102007
1901.91 0.1037
1903.26 0.102908
1904.6 0.100752
1905.95 0.102044
1907.29 0.103358
1908.64 0.102585
1909.98 0.102711
1911.33 0.105978
1912.67 0.103065
1914.01 0.101246
1915.35 0.103475
1916.69 0.10061
1918.03 0.102335
1919.37 0.102234
1920.7 0.102667
1922.04 0.102029
1923.38 0.10125
1924.71 0.104958
1926.04 0.106344
1927.38 0.104697
1928.71 0.105817
1930.04 0.101064
1931.37 0.102094
1932.7 0.103293
1934.03 0.0993758
1935.36 0.10431
1936.69 0.103184
1938.02 0.102811
1939.34 0.103419
1940.67 0.105557
1941.99 0.108655
1943.32 0.103178
1944.64 0.100606
1945.96 0.10196
1947.28 0.102731
1948.6 0.101224
1949.92 0.100044
1951.24 0.0993359
1952.56 0.101115
1953.88 0.100357
1955.2 0.0952072
1956.51 0.097868
1957.83 0.0977694
1959.14 0.094193
1960.46 0.09577
1961.77 0.0952225
1963.08 0.0943655
1964.39 0.097057
1965.71 0.0980786
1967.02 0.0969753
1968.33 0.0971198
1969.63 0.0949479
1970.94 0.0962926
1972.25 0.0967527
1973.55 0.0984147
1974.86 0.0976773
1976.16 0.0968487
1977.47 0.100373
1978.77 0.0986054
1980.07 0.10047
1981.38 0.0995568
1982.68 0.0977158
1983.98 0.101264
1985.28 0.0956641
1986.57 0.0982613
