scanname 扫描323
timestamp 1/1/1970 02:15
scancount 2
laserwavenum 850.5
measurementstate Unknown
scanmode Identification
snr 4.72796 4.72796 4.72796
replacelist 0
peaks 17
741.027 0.341978 0 2.10959 0.000984492
872.69 0.224764 0 6.05646 0.000614859
988.732 0.192762 0 2.9789 0.000161733
1020.81 0.192079 0 4.68835 0.000228133
1078.26 0.213313 0 1.27251 0.000153762
1153.01 0.231794 0 1.43147 0.000189682
1162.58 0.232657 0 1.91039 0.000233019
1219.7 0.241202 0 1.6865 0.000239886
1237.76 0.235076 0 2.22778 0.000263739
1310.18 0.265683 0 3.65011 0.00034895
1414.33 0.221867 0 5.20048 0.000460098
1456.02 0.255275 0 4.01739 0.000419122
1487.38 0.290322 0 8.35714 0.00080254
1514.08 0.266636 0 13.0908 0.00118883
1587 0.274721 0 4.33427 0.000443712
3379.18 0.259296 0 3.67535 0.000709718
3402.14 0.186462 0 0.831779 0.000271371
finalresult Pure single 1A219	0.118086
spectrum 2048
0 -2.74807
2.86447 -2.95489
5.72895 -6.53861
8.59342 -6.41438
11.4579 -7.22979
14.3224 -3.30723
17.1868 -1.37427
20.0513 -2.32846
22.9158 -4.29791
25.7803 -4.67031
28.6447 -5.6486
31.5092 -5.45895
34.3737 -6.5102
37.2382 -5.6997
40.1026 -5.51562
42.9671 -3.32327
45.8316 -3.05307
48.696 -4.33351
51.5605 -4.53051
54.425 -4.29478
57.2895 -4.41902
60.1539 -2.97879
63.0184 -2.77503
65.8829 -3.56416
68.7474 -2.66193
71.6118 -3.36516
74.4763 -3.82776
77.3408 -4.6152
80.2053 -6.24256
83.0697 -3.55477
85.9342 -4.22229
88.7987 -5.12846
91.6632 -5.59116
94.5276 -6.31988
97.3921 -6.42689
100.257 -6.27282
103.121 -6.01528
105.986 -5.43882
108.85 -4.55353
111.714 -3.16635
114.579 -3.85832
117.443 -5.8618
120.308 -4.22323
123.172 -3.95907
126.037 -4.47936
128.901 -5.0211
131.766 -5.49264
134.63 -5.71262
137.495 -6.39194
140.359 -4.43928
143.224 -5.61688
146.088 -4.73095
148.953 -5.61001
151.817 -4.69531
154.682 -4.92713
157.546 -4.68431
160.411 -4.74581
163.275 -4.91084
166.139 -5.89855
169.004 -5.22864
171.868 -5.08311
174.733 -5.94958
177.597 -6.78258
180.462 -5.70748
183.326 -6.30985
186.191 -5.42598
189.055 -5.04641
191.92 -4.44221
194.784 -3.5834
197.649 -5.18635
200.513 -5.92766
203.378 -6.62905
206.242 -5.62998
209.107 -4.68249
211.971 -4.68731
214.836 -4.16987
217.7 -3.69277
220.564 -3.05661
223.429 -5.2826
226.293 -4.83594
229.158 -7.18334
232.022 -6.23387
234.887 -7.63256
237.751 -6.56028
240.616 -4.48898
243.48 -4.9174
246.345 -4.09349
249.209 -3.93723
252.074 -2.25514
254.938 -3.24972
257.803 -5.16341
260.667 -5.4878
263.532 -5.23156
266.396 -4.41953
269.26 -4.49957
272.125 -2.79221
274.989 -4.91975
277.854 -4.48573
280.718 -5.36522
283.583 -4.97185
286.447 -4.56444
289.312 -5.0274
292.176 -5.93022
295.041 -4.41884
297.905 -2.8903
300.77 -4.30559
303.634 -4.40643
306.499 -5.86485
309.363 -5.2643
312.228 -5.85419
315.092 -6.14193
317.957 -6.61382
320.821 -5.01559
323.686 -5.231
326.55 -5.36958
329.414 -5.20692
332.279 -5.78404
335.143 -5.40179
338.008 -3.50167
340.872 -4.72638
343.737 -5.91878
346.601 -5.2968
349.466 -5.9724
352.33 -5.2013
355.195 -5.33494
358.059 -6.66919
360.924 -5.09715
363.788 -4.84893
366.653 -5.42101
369.517 -8.20397
372.382 -7.60374
375.246 -6.3229
378.111 -5.02571
380.975 -5.47145
383.839 -6.18339
386.704 -5.22325
389.568 -5.17546
392.433 -5.05656
395.297 -6.61131
398.162 -6.2722
401.026 -7.31297
403.891 -5.39441
406.755 -5.0516
409.62 -6.27135
412.484 -5.72836
415.349 -4.42802
418.213 -6.45942
421.078 -5.82802
423.942 -4.97028
426.807 -5.87026
429.671 -4.42515
432.535 -4.11197
435.4 -3.34845
438.264 -4.15384
441.129 -5.33064
443.993 -5.39337
446.858 -4.08426
449.722 -4.11704
452.587 -5.55219
455.451 -4.81858
458.316 -5.04204
461.18 -5.40504
464.045 -6.12391
466.909 -4.48671
469.774 -5.24177
472.638 -5.30355
475.503 -5.30448
478.367 -6.51385
481.232 -5.26242
484.096 -3.82124
486.961 -3.75277
489.825 -3.89666
492.689 -5.40431
495.554 -5.57494
498.418 -6.75663
501.283 -4.83896
504.147 -6.36626
507.012 -5.35875
509.876 -6.39519
512.741 -4.98329
515.605 -3.8448
518.47 -3.49305
521.334 -4.8986
524.199 -4.92446
527.063 -4.4827
529.928 -4.20994
532.792 -4.86365
535.657 -4.85253
538.521 -6.55597
541.385 -6.25362
544.25 -5.14996
547.115 -5.53487
549.979 -4.30953
552.843 -4.12446
555.708 -4.92636
558.572 -5.44002
561.437 -5.69835
564.301 -3.55157
567.166 -3.26507
570.03 -4.83247
572.895 -3.37863
575.759 -3.71512
578.624 -4.15485
581.488 -4.08211
584.353 -2.64061
587.217 -2.75371
590.082 -2.34933
592.946 -0.615462
595.81 0.054322
598.675 0.905778
601.539 0.628461
604.404 0.31001
607.268 -1.14698
610.133 -0.568921
612.997 -0.876667
615.862 -0.17441
618.726 0.384078
621.591 1.8245
624.455 3.17949
627.32 2.58254
630.184 1.59644
633.049 0.819013
635.913 0.99214
638.778 0.912363
641.642 1.56262
644.507 1.68657
647.371 2.65784
650.235 2.88181
653.1 2.69023
655.964 2.13657
658.829 1.76708
661.693 1.69053
664.558 1.80762
667.422 1.9614
670.287 2.68612
673.151 3.17047
676.016 3.32793
678.88 3.16887
681.745 2.8671
684.609 3.05965
687.474 2.86369
690.338 2.58928
693.203 2.13398
696.067 2.05066
698.932 2.69536
701.796 2.62002
704.66 1.82619
707.525 1.48301
710.389 1.48861
713.254 1.68902
716.118 1.82129
718.983 2.13826
721.847 2.37028
724.712 2.63024
727.576 2.66409
730.441 2.78702
733.305 2.87452
736.17 3.06253
739.034 3.29429
741.899 3.63651
744.763 3.3492
747.628 3.0274
750.492 2.42656
753.357 1.6545
756.221 1.34128
759.086 1.21469
761.95 1.10459
764.814 1.16572
767.679 1.23788
770.543 1.39188
773.408 1.42301
776.272 1.46297
779.137 1.37967
782.001 1.3049
784.866 1.33999
787.73 1.37376
790.595 1.42876
793.459 1.53964
796.324 1.56051
799.188 1.5258
802.053 1.47692
804.917 1.41672
807.782 1.39125
810.646 1.35786
813.51 1.43058
816.375 1.48072
819.239 1.5566
822.104 1.5861
824.968 1.56473
827.833 1.53578
830.697 1.50453
833.562 1.49055
836.426 1.50221
839.291 1.56458
842.155 1.57865
845.02 1.63629
847.884 1.64295
850.749 1.62785
853.613 1.60507
856.478 1.58692
859.342 1.61629
862.207 1.68854
865.071 1.78993
867.935 1.92824
870.8 2.19572
873.664 2.45868
876.529 2.3455
879.393 1.82947
882.258 1.49417
885.122 1.40509
887.987 1.44742
890.851 1.5061
893.716 1.54739
896.58 1.61879
899.445 1.63263
902.309 1.60313
905.174 1.57468
908.038 1.55339
910.903 1.54814
913.767 1.57091
916.632 1.60864
919.496 1.61372
922.36 1.62842
925.225 1.59717
928.089 1.58821
930.954 1.5901
933.818 1.59882
936.683 1.62201
939.547 1.64689
942.412 1.67424
945.276 1.69586
948.141 1.71586
951.005 1.68234
953.87 1.67239
956.734 1.69276
959.599 1.70031
962.463 1.71472
965.328 1.75152
968.192 1.78665
971.057 1.80989
973.921 1.84452
976.785 1.85609
979.65 1.82017
982.514 1.83553
985.379 1.88314
988.243 1.89617
991.108 1.98098
993.972 1.97989
996.837 1.73006
999.701 1.67816
1002.57 1.66216
1005.43 1.67167
1008.29 1.68835
1011.16 1.72781
1014.02 1.77257
1016.89 1.848
1019.75 1.94526
1022.62 2.05522
1025.48 1.81667
1028.35 1.72086
1031.21 1.63307
1034.07 1.57201
1036.94 1.60433
1039.8 1.63401
1042.67 1.67428
1045.53 1.70465
1048.4 1.71255
1051.26 1.70022
1054.13 1.71041
1056.99 1.7098
1059.86 1.73777
1062.72 1.79034
1065.58 1.85403
1068.45 1.96877
1071.31 2.13731
1074.18 2.15741
1077.04 1.95068
1079.91 2.01624
1082.77 2.23086
1085.64 2.17942
1088.5 1.95
1091.36 1.80924
1094.23 1.80094
1097.09 1.80883
1099.96 1.81437
1102.82 1.79574
1105.69 1.79009
1108.55 1.79321
1111.42 1.83171
1114.28 1.89159
1117.14 1.91984
1120.01 1.95563
1122.87 1.90899
1125.74 1.85684
1128.6 1.81922
1131.47 1.83057
1134.33 1.86343
1137.2 1.9046
1140.06 1.98948
1142.92 2.08317
1145.79 2.26006
1148.65 2.41194
1151.52 2.21423
1154.38 2.22122
1157.25 2.35347
1160.11 2.22036
1162.98 2.13145
1165.84 2.19956
1168.71 2.3068
1171.57 2.455
1174.43 2.02254
1177.3 1.65257
1180.16 1.75243
1183.03 1.80518
1185.89 1.84742
1188.76 1.90047
1191.62 1.9326
1194.49 1.97944
1197.35 2.01444
1200.21 1.9924
1203.08 2.01084
1205.94 2.02336
1208.81 2.09078
1211.67 2.16476
1214.54 2.30751
1217.4 2.462
1220.27 2.50495
1223.13 2.37864
1225.99 2.26084
1228.86 2.2148
1231.72 2.20252
1234.59 2.2353
1237.45 2.29729
1240.32 2.42002
1243.18 2.40855
1246.05 2.12065
1248.91 1.9335
1251.78 1.86411
1254.64 1.88131
1257.5 1.89144
1260.37 1.9107
1263.23 1.95397
1266.1 1.98464
1268.96 1.99785
1271.83 1.98827
1274.69 1.99273
1277.56 1.98614
1280.42 2.02711
1283.28 2.09123
1286.15 2.12757
1289.01 2.17239
1291.88 2.26214
1294.74 2.29418
1297.61 2.32572
1300.47 2.37861
1303.34 2.51604
1306.2 2.64567
1309.06 2.56815
1311.93 2.55965
1314.79 2.61548
1317.66 2.56462
1320.52 2.31225
1323.39 1.98061
1326.25 1.75205
1329.12 1.71667
1331.98 1.67889
1334.84 1.67185
1337.71 1.65777
1340.57 1.57593
1343.44 1.42302
1346.3 1.22964
1349.17 1.14682
1352.03 1.12805
1354.9 1.16649
1357.76 1.2242
1360.62 1.29638
1363.49 1.37484
1366.35 1.44489
1369.22 1.50909
1372.08 1.5155
1374.95 1.53488
1377.81 1.55717
1380.68 1.60216
1383.54 1.65459
1386.41 1.67924
1389.27 1.75054
1392.13 1.80479
1395 1.76007
1397.86 1.735
1400.73 1.79437
1403.59 1.79591
1406.46 1.84745
1409.32 1.95027
1412.19 2.11784
1415.05 2.41305
1417.91 2.42655
1420.78 1.83714
1423.64 1.63622
1426.51 1.64658
1429.37 1.68941
1432.24 1.80955
1435.1 1.83531
1437.97 1.91756
1440.83 1.97236
1443.69 2.04975
1446.56 2.06665
1449.42 2.18464
1452.29 2.46957
1455.15 2.73248
1458.02 2.68784
1460.88 2.40011
1463.75 2.12811
1466.61 2.15457
1469.47 2.27917
1472.34 2.19634
1475.2 2.25797
1478.07 2.37897
1480.93 2.48489
1483.8 2.63137
1486.66 2.76356
1489.53 2.81048
1492.39 2.98306
1495.26 2.65302
1498.12 1.72803
1500.98 1.3913
1503.85 1.4943
1506.71 1.82408
1509.58 2.46381
1512.44 2.705
1515.31 2.70268
1518.17 2.62345
1521.04 1.91929
1523.9 1.31869
1526.76 0.90447
1529.63 0.793355
1532.49 0.726702
1535.36 0.781354
1538.22 0.824131
1541.09 0.925089
1543.95 0.999867
1546.82 1.08881
1549.68 1.15431
1552.54 1.26713
1555.41 1.4405
1558.27 1.45377
1561.14 1.75245
1564 1.83717
1566.87 1.91597
1569.73 1.93101
1572.6 2.13214
1575.46 2.09098
1578.33 2.44729
1581.19 2.72265
1584.05 2.66763
1586.92 2.70636
1589.78 2.63881
1592.65 2.61797
1595.51 2.49012
1598.38 2.14858
1601.24 1.78031
1604.11 1.44065
1606.97 1.18911
1609.83 0.935777
1612.7 0.816022
1615.56 0.687753
1618.43 0.600495
1621.29 0.570944
1624.16 0.554929
1627.02 0.570909
1629.89 0.597704
1632.75 0.625471
1635.61 0.652542
1638.48 0.654999
1641.34 0.683436
1644.21 0.661457
1647.07 0.631523
1649.94 0.687052
1652.8 0.630736
1655.67 0.708555
1658.53 0.747566
1661.39 0.760702
1664.26 0.774566
1667.12 0.768823
1669.99 0.733915
1672.85 0.72242
1675.72 0.723454
1678.58 0.770065
1681.45 0.814405
1684.31 0.819196
1687.18 0.864964
1690.04 0.876348
1692.9 0.907522
1695.77 0.877966
1698.63 0.86832
1701.5 0.868426
1704.36 0.888663
1707.23 0.930329
1710.09 0.957085
1712.96 0.983094
1715.82 0.933461
1718.68 0.915181
1721.55 0.919876
1724.41 0.933937
1727.28 0.954673
1730.14 1.00421
1733.01 0.963242
1735.87 0.992837
1738.74 1.01087
1741.6 0.999815
1744.46 0.988746
1747.33 0.965598
1750.19 0.945925
1753.06 0.964718
1755.92 0.991465
1758.79 1.01641
1761.65 1.01578
1764.52 1.03165
1767.38 1.00512
1770.24 1.00663
1773.11 0.964969
1775.97 1.01542
1778.84 1.02903
1781.7 1.05644
1784.57 1.06981
1787.43 1.09435
1790.3 1.07013
1793.16 1.02163
1796.02 1.01807
1798.89 0.995247
1801.75 1.00013
1804.62 1.02702
1807.48 1.05598
1810.35 1.0453
1813.21 1.05583
1816.08 1.01898
1818.94 0.998521
1821.81 0.983821
1824.67 0.980017
1827.53 0.982792
1830.4 0.991135
1833.26 1.04089
1836.13 1.04327
1838.99 1.03644
1841.86 0.988679
1844.72 0.935827
1847.59 0.924139
1850.45 0.925557
1853.31 0.960833
1856.18 0.976997
1859.04 0.989872
1861.91 1.00893
1864.77 1.0272
1867.64 0.943414
1870.5 0.928606
1873.37 0.924901
1876.23 0.918231
1879.09 0.934814
1881.96 0.947658
1884.82 0.976652
1887.69 0.935701
1890.55 0.907179
1893.42 0.863914
1896.28 0.839115
1899.15 0.863071
1902.01 0.860082
1904.87 0.875745
1907.74 0.903647
1910.6 0.909359
1913.47 0.926767
1916.33 0.875599
1919.2 0.833354
1922.06 0.808613
1924.93 0.79914
1927.79 0.85487
1930.66 0.879863
1933.52 0.890837
1936.38 0.879124
1939.25 0.820383
1942.11 0.742469
1944.98 0.696532
1947.84 0.703102
1950.71 0.679264
1953.57 0.697178
1956.44 0.687459
1959.3 0.692721
1962.16 0.676298
1965.03 0.656643
1967.89 0.561572
1970.76 0.489242
1973.62 0.487332
1976.49 0.50441
1979.35 0.583856
1982.22 0.613242
1985.08 0.66363
1987.94 0.652555
1990.81 0.620178
1993.67 0.594088
1996.54 0.573427
1999.4 0.568556
2002.27 0.590586
2005.13 0.640114
2008 0.659312
2010.86 0.651901
2013.72 0.594833
2016.59 0.560119
2019.45 0.522914
2022.32 0.515922
2025.18 0.520131
2028.05 0.540422
2030.91 0.587301
2033.78 0.600618
2036.64 0.615331
2039.51 0.584347
2042.37 0.600739
2045.23 0.586764
2048.1 0.59928
2050.96 0.681647
2053.83 0.743733
2056.69 0.793452
2059.56 0.81224
2062.42 0.812989
2065.29 0.775857
2068.15 0.755429
2071.01 0.74316
2073.88 0.800638
2076.74 0.821675
2079.61 0.875284
2082.47 0.902783
2085.34 0.902781
2088.2 0.897412
2091.07 0.837905
2093.93 0.860063
2096.79 0.842493
2099.66 0.856636
2102.52 0.868374
2105.39 0.916722
2108.25 0.9173
2111.12 0.917711
2113.98 0.903557
2116.85 0.880366
2119.71 0.868524
2122.58 0.845864
2125.44 0.862926
2128.3 0.877975
2131.17 0.89499
2134.03 0.852182
2136.9 0.804738
2139.76 0.739639
2142.63 0.656924
2145.49 0.629078
2148.36 0.64761
2151.22 0.654549
2154.08 0.659679
2156.95 0.652777
2159.81 0.621397
2162.68 0.624577
2165.54 0.603314
2168.41 0.567653
2171.27 0.588381
2174.14 0.608358
2177 0.695427
2179.86 0.72785
2182.73 0.749023
2185.59 0.75614
2188.46 0.69958
2191.32 0.688259
2194.19 0.689613
2197.05 0.723039
2199.92 0.747509
2202.78 0.799204
2205.64 0.822896
2208.51 0.844787
2211.37 0.802895
2214.24 0.785906
2217.1 0.753368
2219.97 0.769684
2222.83 0.792758
2225.7 0.835953
2228.56 0.880262
2231.43 0.909312
2234.29 0.938161
2237.15 0.91109
2240.02 0.875648
2242.88 0.878659
2245.75 0.870726
2248.61 0.913636
2251.48 0.963245
2254.34 0.973882
2257.21 1.00941
2260.07 1.00147
2262.93 0.997071
2265.8 0.981868
2268.66 0.974563
2271.53 1.01549
2274.39 1.04907
2277.26 1.09367
2280.12 1.11671
2282.99 1.15183
2285.85 1.15134
2288.71 1.146
2291.58 1.14033
2294.44 1.16154
2297.31 1.19356
2300.17 1.22874
2303.04 1.26735
2305.9 1.28012
2308.77 1.30188
2311.63 1.2945
2314.49 1.26614
2317.36 1.28427
2320.22 1.29263
2323.09 1.33477
2325.95 1.37458
2328.82 1.39014
2331.68 1.38234
2334.55 1.35617
2337.41 1.32999
2340.28 1.26949
2343.14 1.28444
2346 1.32037
2348.87 1.38381
2351.73 1.39035
2354.6 1.39103
2357.46 1.38489
2360.33 1.33164
2363.19 1.27929
2366.06 1.26339
2368.92 1.24748
2371.78 1.26725
2374.65 1.29135
2377.51 1.28925
2380.38 1.30709
2383.24 1.29627
2386.11 1.28083
2388.97 1.27499
2391.84 1.25619
2394.7 1.26114
2397.56 1.26906
2400.43 1.28121
2403.29 1.29293
2406.16 1.28409
2409.02 1.25068
2411.89 1.23063
2414.75 1.21422
2417.62 1.20434
2420.48 1.21923
2423.34 1.2308
2426.21 1.26944
2429.07 1.2614
2431.94 1.258
2434.8 1.23913
2437.67 1.20573
2440.53 1.19228
2443.4 1.22225
2446.26 1.22508
2449.12 1.25799
2451.99 1.28275
2454.85 1.27996
2457.72 1.27356
2460.58 1.25128
2463.45 1.24304
2466.31 1.23464
2469.18 1.22941
2472.04 1.24558
2474.91 1.28094
2477.77 1.30794
2480.63 1.30514
2483.5 1.30415
2486.36 1.27275
2489.23 1.2498
2492.09 1.20669
2494.96 1.23249
2497.82 1.26218
2500.69 1.27839
2503.55 1.28213
2506.41 1.28477
2509.28 1.27065
2512.14 1.25867
2515.01 1.25288
2517.87 1.25379
2520.74 1.27072
2523.6 1.30598
2526.47 1.33904
2529.33 1.34619
2532.19 1.33428
2535.06 1.31528
2537.92 1.2874
2540.79 1.27362
2543.65 1.268
2546.52 1.30595
2549.38 1.31902
2552.25 1.33747
2555.11 1.31677
2557.98 1.28183
2560.84 1.27171
2563.7 1.26175
2566.57 1.25467
2569.43 1.28008
2572.3 1.29703
2575.16 1.31454
2578.03 1.34405
2580.89 1.32429
2583.76 1.29421
2586.62 1.26501
2589.48 1.28455
2592.35 1.28747
2595.21 1.28872
2598.08 1.34329
2600.94 1.37344
2603.81 1.3699
2606.67 1.34291
2609.54 1.34395
2612.4 1.33688
2615.26 1.34012
2618.13 1.35165
2620.99 1.38506
2623.86 1.41305
2626.72 1.41096
2629.59 1.4204
2632.45 1.4113
2635.32 1.41633
2638.18 1.40836
2641.04 1.40182
2643.91 1.41551
2646.77 1.45068
2649.64 1.47363
2652.5 1.48901
2655.37 1.487
2658.23 1.48114
2661.1 1.46082
2663.96 1.44478
2666.82 1.44528
2669.69 1.45096
2672.55 1.47764
2675.42 1.48828
2678.28 1.48335
2681.15 1.47813
2684.01 1.45945
2686.88 1.44329
2689.74 1.43047
2692.61 1.44842
2695.47 1.4583
2698.33 1.47541
2701.2 1.49063
2704.06 1.48016
2706.93 1.46492
2709.79 1.46056
2712.66 1.45501
2715.52 1.44871
2718.39 1.46073
2721.25 1.48654
2724.11 1.50265
2726.98 1.51355
2729.84 1.51533
2732.71 1.50621
2735.57 1.48354
2738.44 1.46369
2741.3 1.46031
2744.17 1.4828
2747.03 1.50522
2749.89 1.52295
2752.76 1.53477
2755.62 1.51801
2758.49 1.49376
2761.35 1.48182
2764.22 1.46414
2767.08 1.44237
2769.95 1.47403
2772.81 1.49726
2775.68 1.49269
2778.54 1.47999
2781.4 1.46628
2784.27 1.45499
2787.13 1.44972
2790 1.44906
2792.86 1.45581
2795.73 1.47555
2798.59 1.49975
2801.46 1.49829
2804.32 1.4952
2807.18 1.48564
2810.05 1.45093
2812.91 1.44915
2815.78 1.47116
2818.64 1.50017
2821.51 1.50757
2824.37 1.51881
2827.24 1.51281
2830.1 1.51276
2832.96 1.49016
2835.83 1.46799
2838.69 1.45976
2841.56 1.46877
2844.42 1.47774
2847.29 1.49304
2850.15 1.51239
2853.02 1.50132
2855.88 1.48911
2858.74 1.47409
2861.61 1.45755
2864.47 1.45339
2867.34 1.46367
2870.2 1.47823
2873.07 1.50827
2875.93 1.51353
2878.8 1.50522
2881.66 1.48403
2884.53 1.46011
2887.39 1.45702
2890.25 1.49336
2893.12 1.49263
2895.98 1.51356
2898.85 1.53327
2901.71 1.52385
2904.58 1.51283
2907.44 1.5069
2910.31 1.49952
2913.17 1.49381
2916.03 1.50099
2918.9 1.52297
2921.76 1.54882
2924.63 1.5411
2927.49 1.54014
2930.36 1.52763
2933.22 1.50619
2936.09 1.47462
2938.95 1.48304
2941.81 1.49793
2944.68 1.5143
2947.54 1.54776
2950.41 1.53709
2953.27 1.53061
2956.14 1.51359
2959 1.4987
2961.87 1.47851
2964.73 1.4923
2967.59 1.52671
2970.46 1.55828
2973.32 1.58651
2976.19 1.58296
2979.05 1.56918
2981.92 1.56142
2984.78 1.54957
2987.65 1.52935
2990.51 1.56194
2993.38 1.59029
2996.24 1.61063
2999.1 1.63097
3001.97 1.62491
3004.83 1.61711
3007.7 1.62208
3010.56 1.61347
3013.43 1.63385
3016.29 1.66786
3019.16 1.71681
3022.02 1.74939
3024.88 1.75792
3027.75 1.73132
3030.61 1.71584
3033.48 1.73813
3036.34 1.74499
3039.21 1.76818
3042.07 1.7425
3044.94 1.68436
3047.8 1.64862
3050.66 1.64576
3053.53 1.62224
3056.39 1.55747
3059.26 1.50051
3062.12 1.46797
3064.99 1.46134
3067.85 1.48789
3070.72 1.49614
3073.58 1.52671
3076.44 1.51652
3079.31 1.50401
3082.17 1.52226
3085.04 1.50382
3087.9 1.48714
3090.77 1.48377
3093.63 1.51055
3096.5 1.53891
3099.36 1.53469
3102.23 1.52059
3105.09 1.47771
3107.95 1.44151
3110.82 1.39687
3113.68 1.40169
3116.55 1.43173
3119.41 1.45196
3122.28 1.47121
3125.14 1.45721
3128.01 1.43759
3130.87 1.41962
3133.73 1.40177
3136.6 1.4097
3139.46 1.42343
3142.33 1.43815
3145.19 1.4681
3148.06 1.46237
3150.92 1.45718
3153.79 1.44163
3156.65 1.43528
3159.51 1.41577
3162.38 1.41204
3165.24 1.426
3168.11 1.47606
3170.97 1.51069
3173.84 1.48908
3176.7 1.4858
3179.57 1.43336
3182.43 1.40181
3185.29 1.41674
3188.16 1.42704
3191.02 1.42703
3193.89 1.45473
3196.75 1.48237
3199.62 1.48598
3202.48 1.45293
3205.35 1.4127
3208.21 1.40316
3211.07 1.40725
3213.94 1.42501
3216.8 1.44041
3219.67 1.44573
3222.53 1.45968
3225.4 1.45249
3228.26 1.42374
3231.13 1.4043
3233.99 1.40391
3236.86 1.43424
3239.72 1.42455
3242.58 1.44137
3245.45 1.49678
3248.31 1.49028
3251.18 1.43941
3254.04 1.44218
3256.91 1.42595
3259.77 1.40801
3262.64 1.42196
3265.5 1.44002
3268.36 1.48322
3271.23 1.52151
3274.09 1.50342
3276.96 1.4749
3279.82 1.44865
3282.69 1.41735
3285.55 1.43597
3288.42 1.46368
3291.28 1.48904
3294.14 1.521
3297.01 1.52571
3299.87 1.49985
3302.74 1.48851
3305.6 1.47331
3308.47 1.46433
3311.33 1.46558
3314.2 1.48365
3317.06 1.54287
3319.93 1.55102
3322.79 1.57622
3325.65 1.54491
3328.52 1.52593
3331.38 1.49131
3334.25 1.52395
3337.11 1.54086
3339.98 1.57491
3342.84 1.62544
3345.71 1.62758
3348.57 1.66348
3351.43 1.62082
3354.3 1.6128
3357.16 1.60561
3360.03 1.64789
3362.89 1.6984
3365.76 1.79496
3368.62 1.91959
3371.49 2.05084
3374.35 2.26479
3377.21 2.53053
3380.08 2.82441
3382.94 2.72
3385.81 2.08017
3388.67 1.73399
