scanname 扫描249
timestamp 1/1/1970 00:13
scancount 1
laserwavenum 850.5
measurementstate Unknown
scanmode Identification
snr 4.32073 4.32073 4.32073
replacelist 0
peaks 18
734.146 0.075814 0 1.2139 0.000267685
752.557 0.0698668 0 1.72796 0.000262804
775.145 0.0561701 0 1.72754 0.000204341
800.946 0.0739302 0 5.75644 0.000401326
830.247 0.0629994 0 4.14936 0.000243261
846.123 0.0689878 0 7.02802 0.0003329
910.253 0.0516211 0 5.76655 0.000188476
942.66 0.0483138 0 5.19164 0.000141403
978.73 0.0363193 0 0.51244 2.63485e-05
1035.32 0.0515699 0 2.50332 6.16037e-05
1157.09 0.0658865 0 5.95949 0.00020951
1191.97 0.054625 0 1.35843 7.61127e-05
1344.57 0.136424 0 6.51566 0.000238461
1403.52 0.0669984 0 1.91164 8.52944e-05
1466.78 0.101765 0 4.74896 0.000185319
1533.15 0.16462 0 3.39705 0.000169935
1596.06 0.0417512 0 1.37917 7.15894e-05
3083.95 0.0523557 0 1.92215 0.000107718
finalresult No match found 1A14282	1.51086e-13
spectrum 2048
0 -7.69839
2.86447 -7.22351
5.72895 -5.56913
8.59342 -5.75912
11.4579 -4.98227
14.3224 -2.19108
17.1868 -1.12711
20.0513 -2.03738
22.9158 -1.13934
25.7803 -1.20068
28.6447 1.56826
31.5092 1.20697
34.3737 1.62567
37.2382 3.48416
40.1026 1.45168
42.9671 3.13726
45.8316 1.44706
48.696 4.1447
51.5605 2.9221
54.425 -0.403425
57.2895 0.890628
60.1539 8.19788
63.0184 3.37141
65.8829 -0.262432
68.7474 -1.32301
71.6118 -1.42148
74.4763 0.112068
77.3408 1.19927
80.2053 6.93696
83.0697 1.19313
85.9342 1.37791
88.7987 1.68191
91.6632 2.82912
94.5276 5.42985
97.3921 1.43829
100.257 6.17486
103.121 2.07402
105.986 4.35946
108.85 2.16131
111.714 1.57075
114.579 1.39223
117.443 1.38475
120.308 0.713832
123.172 0.365227
126.037 -1.15752
128.901 0.17839
131.766 4.26869
134.63 1.55114
137.495 0.590083
140.359 1.39947
143.224 -0.797502
146.088 2.62665
148.953 -0.258203
151.817 2.9674
154.682 4.15247
157.546 4.0651
160.411 3.06879
163.275 0.143287
166.139 -2.06679
169.004 1.14222
171.868 0.927061
174.733 -2.31475
177.597 -2.25754
180.462 -2.11234
183.326 -2.91768
186.191 -2.78923
189.055 -2.31384
191.92 5.50881
194.784 3.76432
197.649 1.74518
200.513 -1.37171
203.378 -3.60732
206.242 -4.19298
209.107 -1.59549
211.971 -3.36028
214.836 -3.49502
217.7 -3.0466
220.564 -0.782414
223.429 1.02586
226.293 0.2614
229.158 4.07245
232.022 3.35989
234.887 1.89516
237.751 2.48834
240.616 1.29602
243.48 1.07885
246.345 -1.74229
249.209 -0.322765
252.074 8.13906
254.938 10.4094
257.803 3.88523
260.667 0.162953
263.532 -2.17013
266.396 2.78942
269.26 1.38571
272.125 1.80135
274.989 1.91386
277.854 -0.836853
280.718 4.53646
283.583 0.704094
286.447 0.948845
289.312 3.07552
292.176 3.79246
295.041 -0.629793
297.905 -1.77158
300.77 -1.46991
303.634 1.22235
306.499 2.23014
309.363 -0.453353
312.228 3.30038
315.092 3.0375
317.957 1.97161
320.821 4.46291
323.686 2.94347
326.55 3.09173
329.414 -3.34877
332.279 -3.48124
335.143 -1.47747
338.008 -0.969022
340.872 -0.889521
343.737 0.0481296
346.601 0.375404
349.466 5.99611
352.33 4.36172
355.195 -0.101819
358.059 0.983942
360.924 1.89776
363.788 -0.00875977
366.653 2.69878
369.517 1.015
372.382 0.921583
375.246 5.27525
378.111 4.0474
380.975 3.4792
383.839 2.46646
386.704 1.19874
389.568 2.66996
392.433 4.64219
395.297 5.67608
398.162 7.11289
401.026 8.51371
403.891 8.64115
406.755 3.50686
409.62 -0.827938
412.484 0.616554
415.349 9.59892
418.213 2.28736
421.078 1.61583
423.942 -0.4453
426.807 0.17615
429.671 5.03438
432.535 5.93354
435.4 7.89617
438.264 0.264096
441.129 -0.456056
443.993 1.76433
446.858 1.98946
449.722 3.93001
452.587 5.48717
455.451 1.67886
458.316 -0.695553
461.18 -0.850957
464.045 2.99876
466.909 4.49321
469.774 6.931
472.638 -0.573981
475.503 0.48317
478.367 3.21372
481.232 2.58981
484.096 0.0576123
486.961 -3.57494
489.825 -2.21251
492.689 -0.501951
495.554 -0.370961
498.418 -0.910484
501.283 0.339344
504.147 1.04019
507.012 2.6431
509.876 3.18884
512.741 -1.38723
515.605 -0.723402
518.47 2.24897
521.334 1.64522
524.199 -0.638457
527.063 1.05022
529.928 1.79011
532.792 4.03723
535.657 2.98621
538.521 6.73041
541.385 -1.70793
544.25 -2.40694
547.115 -2.68895
549.979 -0.951677
552.843 3.18405
555.708 -0.945426
558.572 -0.32004
561.437 2.96055
564.301 5.5347
567.166 2.98734
570.03 4.24027
572.895 2.7335
575.759 -0.196851
578.624 -1.04062
581.488 -1.63355
584.353 0.139745
587.217 1.18964
590.082 1.76088
592.946 -0.954322
595.81 -0.0864183
598.675 -0.691632
601.539 0.277584
604.404 -0.105789
607.268 -0.911945
610.133 -0.248163
612.997 0.0181142
615.862 -0.973906
618.726 -0.958996
621.591 0.153087
624.455 -0.0196047
627.32 0.324807
630.184 0.0523908
633.049 -0.0868187
635.913 0.504162
638.778 0.0169997
641.642 0.444297
644.507 0.788248
647.371 0.545119
650.235 0.142123
653.1 0.180214
655.964 0.311298
658.829 0.211309
661.693 0.254685
664.558 0.19954
667.422 0.116582
670.287 0.41273
673.151 0.396045
676.016 0.281078
678.88 0.484778
681.745 0.317273
684.609 0.22209
687.474 0.494542
690.338 0.557449
693.203 0.63671
696.067 0.690257
698.932 0.784624
701.796 0.430816
704.66 0.355527
707.525 0.314528
710.389 0.378755
713.254 0.461487
716.118 0.421631
718.983 0.379773
721.847 0.409159
724.712 0.503685
727.576 0.546369
730.441 0.667379
733.305 0.767138
736.17 0.969542
739.034 0.6357
741.899 0.489364
744.763 0.494037
747.628 0.513387
750.492 0.596844
753.357 0.793117
756.221 0.865357
759.086 0.519854
761.95 0.372541
764.814 0.328678
767.679 0.387772
770.543 0.518722
773.408 0.710592
776.272 0.660626
779.137 0.395149
782.001 0.339323
784.866 0.364667
787.73 0.315801
790.595 0.367464
793.459 0.448607
796.324 0.54498
799.188 0.721596
802.053 0.9106
804.917 0.845313
807.782 0.335401
810.646 0.224742
813.51 0.22594
816.375 0.260951
819.239 0.290406
822.104 0.366069
824.968 0.435579
827.833 0.638986
830.697 0.862663
833.562 0.634769
836.426 0.418551
839.291 0.43076
842.155 0.557134
845.02 0.812211
847.884 0.885486
850.749 0.564599
853.613 0.320606
856.478 0.256636
859.342 0.223341
862.207 0.22936
865.071 0.252619
867.935 0.259263
870.8 0.250453
873.664 0.261803
876.529 0.285028
879.393 0.270216
882.258 0.260825
885.122 0.268417
887.987 0.301303
890.851 0.314469
893.716 0.335772
896.58 0.334762
899.445 0.334695
902.309 0.357131
905.174 0.40044
908.038 0.493558
910.903 0.653852
913.767 0.531822
916.632 0.349741
919.496 0.290803
922.36 0.294613
925.225 0.295363
928.089 0.296791
930.954 0.325368
933.818 0.341565
936.683 0.394237
939.547 0.452013
942.412 0.514166
945.276 0.533364
948.141 0.429228
951.005 0.337071
953.87 0.321176
956.734 0.319792
959.599 0.31822
962.463 0.311927
965.328 0.322754
968.192 0.33019
971.057 0.339303
973.921 0.350534
976.785 0.359226
979.65 0.393333
982.514 0.353157
985.379 0.33577
988.243 0.345161
991.108 0.344784
993.972 0.357796
996.837 0.362274
999.701 0.359002
1002.57 0.359539
1005.43 0.372297
1008.29 0.388317
1011.16 0.382857
1014.02 0.39008
1016.89 0.393605
1019.75 0.410772
1022.62 0.431612
1025.48 0.4532
1028.35 0.48635
1031.21 0.514545
1034.07 0.50578
1036.94 0.512235
1039.8 0.507793
1042.67 0.486707
1045.53 0.440588
1048.4 0.414847
1051.26 0.40611
1054.13 0.396973
1056.99 0.376127
1059.86 0.386909
1062.72 0.390236
1065.58 0.394696
1068.45 0.388036
1071.31 0.365897
1074.18 0.371141
1077.04 0.379125
1079.91 0.381628
1082.77 0.407584
1085.64 0.399013
1088.5 0.388578
1091.36 0.396285
1094.23 0.400846
1097.09 0.406436
1099.96 0.404939
1102.82 0.408398
1105.69 0.402105
1108.55 0.417251
1111.42 0.407605
1114.28 0.433508
1117.14 0.442638
1120.01 0.44683
1122.87 0.4293
1125.74 0.432619
1128.6 0.457269
1131.47 0.475579
1134.33 0.513495
1137.2 0.49234
1140.06 0.45463
1142.92 0.453238
1145.79 0.452734
1148.65 0.497787
1151.52 0.518417
1154.38 0.555185
1157.25 0.653903
1160.11 0.800396
1162.98 0.637881
1165.84 0.404609
1168.71 0.372295
1171.57 0.41516
1174.43 0.412049
1177.3 0.427248
1180.16 0.456482
1183.03 0.477865
1185.89 0.49595
1188.76 0.529297
1191.62 0.549633
1194.49 0.563765
1197.35 0.539472
1200.21 0.476593
1203.08 0.449959
1205.94 0.45409
1208.81 0.472934
1211.67 0.468126
1214.54 0.46836
1217.4 0.471062
1220.27 0.49023
1223.13 0.504775
1225.99 0.501006
1228.86 0.494583
1231.72 0.507259
1234.59 0.51419
1237.45 0.52264
1240.32 0.525993
1243.18 0.522325
1246.05 0.543149
1248.91 0.565946
1251.78 0.571044
1254.64 0.538955
1257.5 0.543142
1260.37 0.545694
1263.23 0.549194
1266.1 0.553176
1268.96 0.568359
1271.83 0.581571
1274.69 0.593356
1277.56 0.607029
1280.42 0.641608
1283.28 0.645972
1286.15 0.667604
1289.01 0.689738
1291.88 0.698656
1294.74 0.703258
1297.61 0.731579
1300.47 0.753572
1303.34 0.787177
1306.2 0.812566
1309.06 0.826494
1311.93 0.845415
1314.79 0.866779
1317.66 0.893749
1320.52 0.955867
1323.39 0.972166
1326.25 1.00455
1329.12 1.05569
1331.98 1.11661
1334.84 1.14873
1337.71 1.21821
1340.57 1.30931
1343.44 1.40389
1346.3 1.41419
1349.17 1.29059
1352.03 1.17908
1354.9 1.08632
1357.76 0.983591
1360.62 0.886201
1363.49 0.789814
1366.35 0.754134
1369.22 0.722567
1372.08 0.683209
1374.95 0.660669
1377.81 0.629951
1380.68 0.601856
1383.54 0.610551
1386.41 0.657824
1389.27 0.656422
1392.13 0.610389
1395 0.614254
1397.86 0.624261
1400.73 0.658555
1403.59 0.690424
1406.46 0.681126
1409.32 0.634891
1412.19 0.583969
1415.05 0.546842
1417.91 0.50716
1420.78 0.538092
1423.64 0.551856
1426.51 0.587129
1429.37 0.603128
1432.24 0.637406
1435.1 0.615512
1437.97 0.640585
1440.83 0.653344
1443.69 0.689925
1446.56 0.700665
1449.42 0.758152
1452.29 0.794631
1455.15 0.784434
1458.02 0.871579
1460.88 0.926046
1463.75 0.956814
1466.61 1.04999
1469.47 1.0721
1472.34 0.955947
1475.2 0.815768
1478.07 0.809227
1480.93 0.844617
1483.8 0.903767
1486.66 0.952474
1489.53 1.00057
1492.39 1.076
1495.26 1.08627
1498.12 1.14662
1500.98 1.21055
1503.85 1.21937
1506.71 1.26308
1509.58 1.37119
1512.44 1.4206
1515.31 1.41027
1518.17 1.47034
1521.04 1.4506
1523.9 1.53627
1526.76 1.58898
1529.63 1.61967
1532.49 1.59359
1535.36 1.69417
1538.22 1.59259
1541.09 1.55365
1543.95 1.43946
1546.82 1.30471
1549.68 1.19376
1552.54 1.08826
1555.41 0.986371
1558.27 0.806001
1561.14 0.807842
1564 0.730247
1566.87 0.6263
1569.73 0.509985
1572.6 0.430295
1575.46 0.337162
1578.33 0.304666
1581.19 0.303416
1584.05 0.29977
1586.92 0.340825
1589.78 0.400006
1592.65 0.437624
1595.51 0.433645
1598.38 0.365231
1601.24 0.36493
1604.11 0.408237
1606.97 0.355294
1609.83 0.263038
1612.7 0.206453
1615.56 0.159021
1618.43 0.146583
1621.29 0.146797
1624.16 0.148232
1627.02 0.142421
1629.89 0.149978
1632.75 0.151067
1635.61 0.151252
1638.48 0.173662
1641.34 0.147146
1644.21 0.154048
1647.07 0.174536
1649.94 0.167631
1652.8 0.163155
1655.67 0.151838
1658.53 0.169946
1661.39 0.148183
1664.26 0.163349
1667.12 0.146984
1669.99 0.166069
1672.85 0.170534
1675.72 0.16199
1678.58 0.143493
1681.45 0.158513
1684.31 0.14433
1687.18 0.173167
1690.04 0.172646
1692.9 0.16897
1695.77 0.17512
1698.63 0.190166
1701.5 0.198501
1704.36 0.178406
1707.23 0.173489
1710.09 0.175913
1712.96 0.166975
1715.82 0.158367
1718.68 0.151803
1721.55 0.156342
1724.41 0.169811
1727.28 0.176167
1730.14 0.167017
1733.01 0.159564
1735.87 0.170723
1738.74 0.16964
1741.6 0.173652
1744.46 0.182461
1747.33 0.174955
1750.19 0.151589
1753.06 0.154193
1755.92 0.181181
1758.79 0.170515
1761.65 0.17934
1764.52 0.171685
1767.38 0.174322
1770.24 0.162421
1773.11 0.162513
1775.97 0.176618
1778.84 0.172253
1781.7 0.171073
1784.57 0.163996
1787.43 0.174372
1790.3 0.176113
1793.16 0.177085
1796.02 0.198701
1798.89 0.193074
1801.75 0.187264
1804.62 0.189941
1807.48 0.186114
1810.35 0.193909
1813.21 0.190734
1816.08 0.178337
1818.94 0.171198
1821.81 0.198289
1824.67 0.187853
1827.53 0.184022
1830.4 0.191998
1833.26 0.18816
1836.13 0.207178
1838.99 0.182702
1841.86 0.170918
1844.72 0.184436
1847.59 0.168098
1850.45 0.191289
1853.31 0.174287
1856.18 0.163442
1859.04 0.156715
1861.91 0.170535
1864.77 0.172088
1867.64 0.168751
1870.5 0.182946
1873.37 0.180915
1876.23 0.179226
1879.09 0.173869
1881.96 0.190544
1884.82 0.180085
1887.69 0.177215
1890.55 0.160177
1893.42 0.145333
1896.28 0.174777
1899.15 0.192412
1902.01 0.179343
1904.87 0.16057
1907.74 0.174077
1910.6 0.196589
1913.47 0.179967
1916.33 0.180208
1919.2 0.178743
1922.06 0.166201
1924.93 0.155432
1927.79 0.155607
1930.66 0.159117
1933.52 0.174839
1936.38 0.153874
1939.25 0.155125
1942.11 0.150962
1944.98 0.173715
1947.84 0.184673
1950.71 0.154994
1953.57 0.173836
1956.44 0.143387
1959.3 0.107671
1962.16 0.161436
1965.03 0.137163
1967.89 0.131622
1970.76 0.108694
1973.62 0.111001
1976.49 0.0840253
1979.35 0.152651
1982.22 0.168883
1985.08 0.16299
1987.94 0.160415
1990.81 0.127511
1993.67 0.123
1996.54 0.113025
1999.4 0.117183
2002.27 0.15088
2005.13 0.17866
2008 0.168247
2010.86 0.10492
2013.72 0.100057
2016.59 0.122925
2019.45 0.0822092
2022.32 0.167881
2025.18 0.143872
2028.05 0.149475
2030.91 0.146313
2033.78 0.141333
2036.64 0.112796
2039.51 0.161432
2042.37 0.150979
2045.23 0.160017
2048.1 0.140721
2050.96 0.170887
2053.83 0.173403
2056.69 0.176853
2059.56 0.153204
2062.42 0.156863
2065.29 0.187141
2068.15 0.197268
2071.01 0.180026
2073.88 0.191329
2076.74 0.190252
2079.61 0.213411
2082.47 0.199106
2085.34 0.203729
2088.2 0.190281
2091.07 0.187801
2093.93 0.188647
2096.79 0.181473
2099.66 0.18088
2102.52 0.163826
2105.39 0.171981
2108.25 0.198223
2111.12 0.181989
2113.98 0.176107
2116.85 0.201919
2119.71 0.210266
2122.58 0.191207
2125.44 0.164315
2128.3 0.181194
2131.17 0.175835
2134.03 0.183201
2136.9 0.184989
2139.76 0.173744
2142.63 0.168074
2145.49 0.14799
2148.36 0.138757
2151.22 0.126797
2154.08 0.117427
2156.95 0.116923
2159.81 0.106931
2162.68 0.154983
2165.54 0.165339
2168.41 0.13616
2171.27 0.16641
2174.14 0.118364
2177 0.161527
2179.86 0.16769
2182.73 0.18252
2185.59 0.180957
2188.46 0.166255
2191.32 0.145839
2194.19 0.166997
2197.05 0.15728
2199.92 0.171079
2202.78 0.171961
2205.64 0.156971
2208.51 0.199909
2211.37 0.184708
2214.24 0.216803
2217.1 0.194832
2219.97 0.185297
2222.83 0.164373
2225.7 0.176129
2228.56 0.173757
2231.43 0.204868
2234.29 0.200601
2237.15 0.193518
2240.02 0.222297
2242.88 0.205832
2245.75 0.225842
2248.61 0.177272
2251.48 0.198693
2254.34 0.208124
2257.21 0.202302
2260.07 0.225684
2262.93 0.234988
2265.8 0.236676
2268.66 0.239733
2271.53 0.234511
2274.39 0.229738
2277.26 0.234409
2280.12 0.236081
2282.99 0.2565
2285.85 0.246354
2288.71 0.264601
2291.58 0.261822
2294.44 0.262618
2297.31 0.257572
2300.17 0.267549
2303.04 0.268399
2305.9 0.263203
2308.77 0.272758
2311.63 0.27096
2314.49 0.268913
2317.36 0.277855
2320.22 0.275891
2323.09 0.285718
2325.95 0.288
2328.82 0.290177
2331.68 0.282745
2334.55 0.267417
2337.41 0.257408
2340.28 0.265912
2343.14 0.268488
2346 0.294276
2348.87 0.295216
2351.73 0.28166
2354.6 0.285607
2357.46 0.277306
2360.33 0.282519
2363.19 0.273918
2366.06 0.28089
2368.92 0.29251
2371.78 0.282781
2374.65 0.264873
2377.51 0.286307
2380.38 0.274248
2383.24 0.26536
2386.11 0.281451
2388.97 0.273908
2391.84 0.260722
2394.7 0.275447
2397.56 0.267185
2400.43 0.266611
2403.29 0.262829
2406.16 0.268303
2409.02 0.267723
2411.89 0.265308
2414.75 0.271008
2417.62 0.257797
2420.48 0.276033
2423.34 0.269568
2426.21 0.269893
2429.07 0.271509
2431.94 0.268883
2434.8 0.277901
2437.67 0.283814
2440.53 0.274031
2443.4 0.289776
2446.26 0.28454
2449.12 0.27351
2451.99 0.270115
2454.85 0.292324
2457.72 0.287222
2460.58 0.289704
2463.45 0.279249
2466.31 0.260154
2469.18 0.271999
2472.04 0.289372
2474.91 0.302413
2477.77 0.290561
2480.63 0.284349
2483.5 0.287505
2486.36 0.289871
2489.23 0.285151
2492.09 0.274466
2494.96 0.266854
2497.82 0.270234
2500.69 0.267431
2503.55 0.275771
2506.41 0.275512
2509.28 0.260579
2512.14 0.283286
2515.01 0.293385
2517.87 0.27653
2520.74 0.270253
2523.6 0.257902
2526.47 0.270092
2529.33 0.28018
2532.19 0.277335
2535.06 0.283071
2537.92 0.290335
2540.79 0.284198
2543.65 0.279649
2546.52 0.281932
2549.38 0.282029
2552.25 0.271098
2555.11 0.275397
2557.98 0.297875
2560.84 0.286796
2563.7 0.298965
2566.57 0.272587
2569.43 0.293025
2572.3 0.29914
2575.16 0.270079
2578.03 0.287889
2580.89 0.283779
2583.76 0.3004
2586.62 0.284232
2589.48 0.302912
2592.35 0.293014
2595.21 0.283486
2598.08 0.281422
2600.94 0.2961
2603.81 0.308047
2606.67 0.313833
2609.54 0.319693
2612.4 0.319392
2615.26 0.309653
2618.13 0.311696
2620.99 0.298751
2623.86 0.308973
2626.72 0.324504
2629.59 0.328256
2632.45 0.320675
2635.32 0.33084
2638.18 0.310671
2641.04 0.317728
2643.91 0.317327
2646.77 0.313707
2649.64 0.333659
2652.5 0.329552
2655.37 0.342287
2658.23 0.339475
2661.1 0.334934
2663.96 0.326979
2666.82 0.325852
2669.69 0.328443
2672.55 0.32412
2675.42 0.326514
2678.28 0.334493
2681.15 0.334757
2684.01 0.347079
2686.88 0.346968
2689.74 0.351559
2692.61 0.344571
2695.47 0.338174
2698.33 0.342838
2701.2 0.341019
2704.06 0.342298
2706.93 0.341179
2709.79 0.334274
2712.66 0.343108
2715.52 0.335587
2718.39 0.34297
2721.25 0.35426
2724.11 0.345411
2726.98 0.337037
2729.84 0.335559
2732.71 0.337268
2735.57 0.343371
2738.44 0.325482
2741.3 0.334973
2744.17 0.345243
2747.03 0.337357
2749.89 0.336389
2752.76 0.323742
2755.62 0.332757
2758.49 0.336147
2761.35 0.346987
2764.22 0.334058
2767.08 0.338063
2769.95 0.341623
2772.81 0.342961
2775.68 0.339463
2778.54 0.330894
2781.4 0.33616
2784.27 0.347198
2787.13 0.334276
2790 0.338492
2792.86 0.34464
2795.73 0.344491
2798.59 0.343365
2801.46 0.357859
2804.32 0.346881
2807.18 0.355795
2810.05 0.357669
2812.91 0.352006
2815.78 0.367647
2818.64 0.35593
2821.51 0.342125
2824.37 0.35518
2827.24 0.349149
2830.1 0.336874
2832.96 0.347978
2835.83 0.362028
2838.69 0.355405
2841.56 0.349076
2844.42 0.357978
2847.29 0.361758
2850.15 0.364668
2853.02 0.374271
2855.88 0.376785
2858.74 0.376894
2861.61 0.366753
2864.47 0.369884
2867.34 0.385948
2870.2 0.381409
2873.07 0.393978
2875.93 0.411649
2878.8 0.405059
2881.66 0.416507
2884.53 0.415605
2887.39 0.421932
2890.25 0.410836
2893.12 0.410118
2895.98 0.418536
2898.85 0.431678
2901.71 0.405196
2904.58 0.40945
2907.44 0.409401
2910.31 0.414438
2913.17 0.39673
2916.03 0.39797
2918.9 0.380978
2921.76 0.369663
2924.63 0.373058
2927.49 0.375658
2930.36 0.376831
2933.22 0.372804
2936.09 0.354394
2938.95 0.363531
2941.81 0.353769
2944.68 0.370912
2947.54 0.369254
2950.41 0.370771
2953.27 0.37024
2956.14 0.362099
2959 0.357303
2961.87 0.358761
2964.73 0.359644
2967.59 0.354999
2970.46 0.352853
2973.32 0.367088
2976.19 0.357092
2979.05 0.355642
2981.92 0.352929
2984.78 0.357606
2987.65 0.358767
2990.51 0.341419
2993.38 0.364313
2996.24 0.350918
2999.1 0.369824
3001.97 0.366123
3004.83 0.367369
3007.7 0.363793
3010.56 0.370081
3013.43 0.363019
3016.29 0.364765
3019.16 0.369905
3022.02 0.358267
3024.88 0.373866
3027.75 0.358289
3030.61 0.370591
3033.48 0.370092
3036.34 0.375513
3039.21 0.362712
3042.07 0.388699
3044.94 0.379339
3047.8 0.392298
3050.66 0.39863
3053.53 0.407182
3056.39 0.414684
3059.26 0.406063
3062.12 0.404612
3064.99 0.385703
3067.85 0.386259
3070.72 0.403697
3073.58 0.42171
3076.44 0.447678
3079.31 0.468304
3082.17 0.527505
3085.04 0.574818
3087.9 0.516996
3090.77 0.436228
3093.63 0.397402
3096.5 0.377221
3099.36 0.345459
3102.23 0.368316
3105.09 0.366458
3107.95 0.360495
3110.82 0.357199
3113.68 0.349706
3116.55 0.337697
3119.41 0.362057
3122.28 0.36293
3125.14 0.379732
3128.01 0.366247
3130.87 0.367346
3133.73 0.343326
3136.6 0.34457
3139.46 0.344944
3142.33 0.350304
3145.19 0.367537
3148.06 0.358936
3150.92 0.359798
3153.79 0.364037
3156.65 0.365426
3159.51 0.365325
3162.38 0.363432
3165.24 0.353099
3168.11 0.346935
3170.97 0.360177
3173.84 0.370118
3176.7 0.36805
3179.57 0.356688
3182.43 0.354017
3185.29 0.363833
3188.16 0.388851
3191.02 0.386124
3193.89 0.380919
3196.75 0.360573
3199.62 0.35628
3202.48 0.378332
3205.35 0.383878
3208.21 0.359489
3211.07 0.365441
3213.94 0.367938
3216.8 0.372181
3219.67 0.368347
3222.53 0.377104
3225.4 0.369078
3228.26 0.377958
3231.13 0.362034
3233.99 0.35929
3236.86 0.365189
3239.72 0.359011
3242.58 0.358659
3245.45 0.380138
3248.31 0.371768
3251.18 0.347804
3254.04 0.364476
3256.91 0.363952
3259.77 0.389324
3262.64 0.393723
3265.5 0.382353
3268.36 0.358354
