scanname 扫描257
timestamp 1/1/1970 00:28
scancount 1
laserwavenum 850.5
measurementstate Unknown
scanmode Identification
snr 10.4544 10.4544 10.4544
replacelist 0
peaks 18
735.42 0.19039 0 5.24534 0.000812452
799.013 0.137573 0 7.89202 0.000555394
835.385 0.173954 0 20.1286 0.0010067
910.661 0.140313 0 16.8004 0.000541149
929.072 0.102598 0 11.1437 0.000319309
1041.72 0.0890625 0 4.50258 0.000104048
1076.82 0.118209 0 11.8737 0.000340801
1124.61 0.0917205 0 2.08172 9.28535e-05
1199.54 0.114086 0 4.57457 0.000193397
1309.75 0.206177 0 7.40287 0.000289213
1336.8 0.269644 0 16.4289 0.000653596
1373.95 0.0815854 0 3.8537 0.000137709
1418.45 0.111423 0 6.83155 0.000233723
1446.67 0.113418 0 3.47982 0.000140238
1536.32 0.280182 0 12.7742 0.0006197
1596.07 0.0582714 0 5.40413 0.000185794
1629.04 0.053891 0 5.0867 0.000198912
3099.77 0.0972778 0 3.31386 0.000166854
finalresult No match found 1A3666	6.86996e-18
spectrum 2048
0 -12.2271
2.86447 -12.3642
5.72895 -8.24848
8.59342 -8.53624
11.4579 -3.55237
14.3224 -2.47235
17.1868 -2.28813
20.0513 -0.225956
22.9158 -0.54964
25.7803 0.640017
28.6447 -3.55922
31.5092 15.8931
34.3737 -2.12604
37.2382 -0.75054
40.1026 -3.62629
42.9671 -1.88279
45.8316 0.732348
48.696 0.575561
51.5605 1.39548
54.425 -1.22776
57.2895 5.40124
60.1539 -1.24993
63.0184 -0.151799
65.8829 1.55381
68.7474 1.6018
71.6118 0.324726
74.4763 3.92422
77.3408 -2.06615
80.2053 -1.71753
83.0697 -0.0988733
85.9342 -0.627605
88.7987 0.702783
91.6632 0.197834
94.5276 -2.01899
97.3921 4.00166
100.257 -2.00613
103.121 -4.30648
105.986 -3.91341
108.85 2.19881
111.714 -1.01383
114.579 -0.697621
117.443 -2.53906
120.308 0.630607
123.172 1.37589
126.037 -1.3644
128.901 -0.102805
131.766 -0.14567
134.63 -2.82025
137.495 -0.20226
140.359 -1.84481
143.224 -1.66598
146.088 0.441024
148.953 -3.91747
151.817 -0.956672
154.682 -2.06976
157.546 -2.05441
160.411 -0.442271
163.275 -4.18935
166.139 -2.22514
169.004 0.969277
171.868 0.490964
174.733 -2.26359
177.597 -2.86137
180.462 0.00376675
183.326 0.916139
186.191 -0.708358
189.055 -1.5456
191.92 -1.3223
194.784 -0.491749
197.649 -0.276536
200.513 -1.04934
203.378 2.07708
206.242 -1.89581
209.107 0.676481
211.971 -1.5938
214.836 -3.23143
217.7 2.02492
220.564 -3.51491
223.429 0.202795
226.293 1.54054
229.158 1.28502
232.022 -1.59351
234.887 -0.228057
237.751 -2.48623
240.616 -1.03791
243.48 -0.70972
246.345 -2.82395
249.209 2.65743
252.074 -1.47294
254.938 -0.363236
257.803 -1.03402
260.667 -0.608153
263.532 0.0645219
266.396 1.37482
269.26 -1.50654
272.125 -2.48853
274.989 1.27717
277.854 -2.16712
280.718 -2.23856
283.583 -2.37093
286.447 9.85449
289.312 -0.7366
292.176 -1.9153
295.041 3.40164
297.905 3.61626
300.77 -2.22096
303.634 -1.686
306.499 -1.53377
309.363 -2.98271
312.228 3.13518
315.092 -1.31294
317.957 -2.57038
320.821 -2.58968
323.686 4.08067
326.55 -0.228826
329.414 5.0648
332.279 -0.870004
335.143 -0.534883
338.008 4.83344
340.872 -2.72517
343.737 -2.54928
346.601 -2.17227
349.466 -3.47423
352.33 0.709418
355.195 5.78404
358.059 -1.8041
360.924 0.789005
363.788 -2.13579
366.653 -0.636927
369.517 -1.21699
372.382 0.803483
375.246 -0.336515
378.111 6.13516
380.975 -3.01973
383.839 0.942107
386.704 -3.80194
389.568 -1.84556
392.433 0.604878
395.297 3.34697
398.162 1.31798
401.026 0.707772
403.891 -3.1877
406.755 -0.928889
409.62 -1.75292
412.484 -1.68298
415.349 -1.41693
418.213 1.93571
421.078 -1.99833
423.942 2.50004
426.807 0.250654
429.671 -2.5689
432.535 -1.46697
435.4 0.397215
438.264 0.246157
441.129 1.5614
443.993 -0.413523
446.858 -2.68883
449.722 -0.639382
452.587 -0.245895
455.451 -2.07844
458.316 -1.731
461.18 -3.79123
464.045 1.26615
466.909 -0.438824
469.774 -2.85298
472.638 6.52232
475.503 -3.18098
478.367 0.853492
481.232 -2.86209
484.096 -3.23286
486.961 0.270948
489.825 -0.914322
492.689 0.391061
495.554 0.596854
498.418 -0.679104
501.283 -3.0611
504.147 2.62506
507.012 -2.36708
509.876 -3.39182
512.741 1.06322
515.605 -2.38107
518.47 1.27224
521.334 1.39289
524.199 -1.60335
527.063 0.706934
529.928 -1.64939
532.792 -4.59485
535.657 -0.107722
538.521 -0.139445
541.385 0.305842
544.25 0.0895938
547.115 2.0988
549.979 -2.00452
552.843 -1.15279
555.708 -0.261616
558.572 0.279287
561.437 -2.23866
564.301 -1.03898
567.166 0.225377
570.03 3.35834
572.895 -1.79763
575.759 0.899999
578.624 -0.708845
581.488 1.53608
584.353 -0.475102
587.217 -0.638053
590.082 -1.46596
592.946 1.11327
595.81 0.295371
598.675 2.66432
601.539 0.511991
604.404 1.19708
607.268 1.05323
610.133 2.26505
612.997 1.075
615.862 2.66831
618.726 -0.435992
621.591 1.38531
624.455 -0.268233
627.32 1.40196
630.184 1.10629
633.049 1.74386
635.913 0.114071
638.778 1.02721
641.642 0.14136
644.507 1.10668
647.371 0.515127
650.235 0.946521
653.1 0.398254
655.964 0.994407
658.829 0.363651
661.693 0.888453
664.558 0.43571
667.422 1.03414
670.287 0.578699
673.151 0.830296
676.016 0.450522
678.88 1.02759
681.745 0.714532
684.609 1.10627
687.474 0.781983
690.338 0.892747
693.203 0.752052
696.067 1.04875
698.932 0.882151
701.796 1.21957
704.66 1.01267
707.525 1.09335
710.389 0.715816
713.254 0.995588
716.118 0.988881
718.983 1.1392
721.847 0.962389
724.712 1.19775
727.576 1.19242
730.441 1.46512
733.305 1.73546
736.17 2.23444
739.034 2.12634
741.899 1.39518
744.763 0.902733
747.628 0.826605
750.492 0.770357
753.357 0.77587
756.221 0.738165
759.086 0.751514
761.95 0.709273
764.814 0.771955
767.679 0.969832
770.543 0.767845
773.408 0.738177
776.272 0.734772
779.137 0.789382
782.001 0.799426
784.866 0.840447
787.73 0.85458
790.595 0.966068
793.459 0.965799
796.324 1.12097
799.188 1.30027
802.053 1.604
804.917 1.51099
807.782 0.835558
810.646 0.475273
813.51 0.581859
816.375 0.590089
819.239 0.679608
822.104 0.706671
824.968 0.858397
827.833 0.970128
830.697 1.23981
833.562 1.5512
836.426 2.19378
839.291 2.00388
842.155 0.932715
845.02 0.429029
847.884 0.399864
850.749 0.372313
853.613 0.479951
856.478 0.447728
859.342 0.509278
862.207 0.497064
865.071 0.574299
867.935 0.526471
870.8 0.568309
873.664 0.555654
876.529 0.615788
879.393 0.595279
882.258 0.636729
885.122 0.615109
887.987 0.649736
890.851 0.652365
893.716 0.712369
896.58 0.745889
899.445 0.844492
902.309 0.907754
905.174 1.11047
908.038 1.29465
910.903 1.55654
913.767 1.61161
916.632 1.08517
919.496 0.770911
922.36 0.767634
925.225 0.9073
928.089 1.16181
930.954 1.25262
933.818 0.869333
936.683 0.640728
939.547 0.591087
942.412 0.591148
945.276 0.576195
948.141 0.578449
951.005 0.594054
953.87 0.605815
956.734 0.612932
959.599 0.625612
962.463 0.611577
965.328 0.619574
968.192 0.620691
971.057 0.654209
973.921 0.641232
976.785 0.659489
979.65 0.657267
982.514 0.678587
985.379 0.662093
988.243 0.674633
991.108 0.663907
993.972 0.695382
996.837 0.682416
999.701 0.7057
1002.57 0.68374
1005.43 0.702354
1008.29 0.679326
1011.16 0.718559
1014.02 0.714841
1016.89 0.744618
1019.75 0.75031
1022.62 0.755693
1025.48 0.725922
1028.35 0.77354
1031.21 0.76533
1034.07 0.828369
1036.94 0.846377
1039.8 0.940014
1042.67 0.918524
1045.53 0.862666
1048.4 0.783047
1051.26 0.783453
1054.13 0.764841
1056.99 0.801706
1059.86 0.785898
1062.72 0.846486
1065.58 0.83668
1068.45 0.911401
1071.31 0.932661
1074.18 1.11294
1077.04 1.24862
1079.91 1.31432
1082.77 1.03115
1085.64 0.838604
1088.5 0.725526
1091.36 0.720979
1094.23 0.713462
1097.09 0.739737
1099.96 0.728319
1102.82 0.745453
1105.69 0.759977
1108.55 0.801304
1111.42 0.782488
1114.28 0.817824
1117.14 0.847011
1120.01 0.896456
1122.87 0.95249
1125.74 0.940364
1128.6 0.866597
1131.47 0.845899
1134.33 0.835384
1137.2 0.782974
1140.06 0.793641
1142.92 0.784716
1145.79 0.79337
1148.65 0.797548
1151.52 0.851982
1154.38 0.8429
1157.25 0.861384
1160.11 0.848564
1162.98 0.846203
1165.84 0.841087
1168.71 0.876922
1171.57 0.869527
1174.43 0.918094
1177.3 0.878971
1180.16 0.914704
1183.03 0.877544
1185.89 0.927356
1188.76 0.921754
1191.62 1.01129
1194.49 1.02024
1197.35 1.16337
1200.21 1.28013
1203.08 1.12448
1205.94 0.925733
1208.81 0.929944
1211.67 0.92634
1214.54 0.968235
1217.4 0.934766
1220.27 0.987552
1223.13 0.962497
1225.99 1.01548
1228.86 0.975177
1231.72 1.05867
1234.59 1.02463
1237.45 1.06936
1240.32 1.05372
1243.18 1.11994
1246.05 1.08499
1248.91 1.13008
1251.78 1.11484
1254.64 1.12966
1257.5 1.10015
1260.37 1.13171
1263.23 1.11659
1266.1 1.18318
1268.96 1.18921
1271.83 1.23446
1274.69 1.25333
1277.56 1.33894
1280.42 1.39703
1283.28 1.46541
1286.15 1.47037
1289.01 1.48991
1291.88 1.52402
1294.74 1.59258
1297.61 1.66705
1300.47 1.77944
1303.34 1.88068
1306.2 2.0263
1309.06 2.14688
1311.93 2.1063
1314.79 1.93863
1317.66 1.77712
1320.52 1.79098
1323.39 1.86311
1326.25 2.04954
1329.12 2.23123
1331.98 2.45774
1334.84 2.63168
1337.71 2.79962
1340.57 2.72231
1343.44 2.40054
1346.3 1.92051
1349.17 1.77329
1352.03 1.65733
1354.9 1.41343
1357.76 0.976195
1360.62 0.754474
1363.49 0.663364
1366.35 0.750885
1369.22 0.75647
1372.08 0.80969
1374.95 0.822492
1377.81 0.848058
1380.68 0.710105
1383.54 0.667727
1386.41 0.620435
1389.27 0.670042
1392.13 0.596213
1395 0.614685
1397.86 0.585518
1400.73 0.670358
1403.59 0.705819
1406.46 0.807799
1409.32 0.855522
1412.19 1.01527
1415.05 1.10527
1417.91 1.18384
1420.78 1.1005
1423.64 1.01098
1426.51 0.90764
1429.37 0.879461
1432.24 0.875812
1435.1 0.949057
1437.97 1.00957
1440.83 1.10467
1443.69 1.1206
1446.56 1.14507
1449.42 1.103
1452.29 1.10457
1455.15 1.01485
1458.02 0.962578
1460.88 0.974764
1463.75 0.962141
1466.61 0.986064
1469.47 1.02342
1472.34 0.992677
1475.2 1.05972
1478.07 1.09538
1480.93 1.1383
1483.8 1.19453
1486.66 1.24659
1489.53 1.26274
1492.39 1.36007
1495.26 1.40154
1498.12 1.46073
1500.98 1.54695
1503.85 1.61893
1506.71 1.60761
1509.58 1.77081
1512.44 1.89519
1515.31 1.94012
1518.17 2.06647
1521.04 2.0124
1523.9 2.17094
1526.76 2.25568
1529.63 2.48932
1532.49 2.59319
1535.36 2.95373
1538.22 2.86044
1541.09 2.63559
1543.95 2.31083
1546.82 2.10074
1549.68 1.74912
1552.54 1.51318
1555.41 1.39132
1558.27 1.17832
1561.14 0.94896
1564 0.795395
1566.87 0.588578
1569.73 0.478901
1572.6 0.400722
1575.46 0.362882
1578.33 0.339352
1581.19 0.366548
1584.05 0.348794
1586.92 0.415316
1589.78 0.447659
1592.65 0.53405
1595.51 0.621142
1598.38 0.639425
1601.24 0.512706
1604.11 0.438188
1606.97 0.363024
1609.83 0.354857
1612.7 0.341544
1615.56 0.368065
1618.43 0.351796
1621.29 0.403277
1624.16 0.403405
1627.02 0.523588
1629.89 0.615848
1632.75 0.601381
1635.61 0.36514
1638.48 0.320585
1641.34 0.268713
1644.21 0.260678
1647.07 0.246658
1649.94 0.286821
1652.8 0.250857
1655.67 0.284395
1658.53 0.277664
1661.39 0.269455
1664.26 0.269723
1667.12 0.291938
1669.99 0.298142
1672.85 0.299981
1675.72 0.277622
1678.58 0.313618
1681.45 0.294737
1684.31 0.272255
1687.18 0.29838
1690.04 0.319326
1692.9 0.317264
1695.77 0.296339
1698.63 0.307514
1701.5 0.300475
1704.36 0.320819
1707.23 0.319644
1710.09 0.319881
1712.96 0.299576
1715.82 0.310052
1718.68 0.324121
1721.55 0.330152
1724.41 0.307892
1727.28 0.335179
1730.14 0.332015
1733.01 0.342133
1735.87 0.30512
1738.74 0.324777
1741.6 0.310987
1744.46 0.32061
1747.33 0.314631
1750.19 0.341885
1753.06 0.31766
1755.92 0.34616
1758.79 0.358811
1761.65 0.355626
1764.52 0.333594
1767.38 0.359374
1770.24 0.333955
1773.11 0.354846
1775.97 0.319758
1778.84 0.362816
1781.7 0.315146
1784.57 0.341629
1787.43 0.34753
1790.3 0.351583
1793.16 0.326356
1796.02 0.373295
1798.89 0.321161
1801.75 0.351705
1804.62 0.359984
1807.48 0.386733
1810.35 0.374208
1813.21 0.403452
1816.08 0.369545
1818.94 0.402599
1821.81 0.379924
1824.67 0.389209
1827.53 0.349445
1830.4 0.337644
1833.26 0.333602
1836.13 0.358367
1838.99 0.346005
1841.86 0.343421
1844.72 0.310309
1847.59 0.366521
1850.45 0.339745
1853.31 0.362757
1856.18 0.337165
1859.04 0.339299
1861.91 0.334288
1864.77 0.323085
1867.64 0.341283
1870.5 0.355102
1873.37 0.340948
1876.23 0.349975
1879.09 0.337559
1881.96 0.298548
1884.82 0.33919
1887.69 0.325741
1890.55 0.339402
1893.42 0.347534
1896.28 0.353742
1899.15 0.330899
1902.01 0.332156
1904.87 0.310425
1907.74 0.328764
1910.6 0.311646
1913.47 0.31724
1916.33 0.306394
1919.2 0.32156
1922.06 0.304355
1924.93 0.343253
1927.79 0.295077
1930.66 0.352699
1933.52 0.296998
1936.38 0.299114
1939.25 0.271685
1942.11 0.30324
1944.98 0.252162
1947.84 0.301442
1950.71 0.287826
1953.57 0.302765
1956.44 0.254553
1959.3 0.290964
1962.16 0.261321
1965.03 0.287385
1967.89 0.254298
1970.76 0.284989
1973.62 0.234607
1976.49 0.271077
1979.35 0.254493
1982.22 0.282572
1985.08 0.250748
1987.94 0.282064
1990.81 0.218522
1993.67 0.293611
1996.54 0.293551
1999.4 0.298291
2002.27 0.249962
2005.13 0.279283
2008 0.264059
2010.86 0.277383
2013.72 0.237064
2016.59 0.279467
2019.45 0.237458
2022.32 0.264643
2025.18 0.251503
2028.05 0.262484
2030.91 0.25888
2033.78 0.247369
2036.64 0.240646
2039.51 0.248318
2042.37 0.276399
2045.23 0.270145
2048.1 0.289328
2050.96 0.318324
2053.83 0.30698
2056.69 0.33568
2059.56 0.346634
2062.42 0.333719
2065.29 0.318798
2068.15 0.320222
2071.01 0.31188
2073.88 0.298494
2076.74 0.323016
2079.61 0.340372
2082.47 0.351518
2085.34 0.359921
2088.2 0.378399
2091.07 0.348283
2093.93 0.354172
2096.79 0.336093
2099.66 0.36644
2102.52 0.339346
2105.39 0.364341
2108.25 0.342838
2111.12 0.357581
2113.98 0.333688
2116.85 0.360252
2119.71 0.345162
2122.58 0.392164
2125.44 0.363303
2128.3 0.360512
2131.17 0.330428
2134.03 0.333356
2136.9 0.256468
2139.76 0.316609
2142.63 0.299634
2145.49 0.341291
2148.36 0.291833
2151.22 0.287534
2154.08 0.251037
2156.95 0.311018
2159.81 0.280701
2162.68 0.269171
2165.54 0.237155
2168.41 0.32594
2171.27 0.281474
2174.14 0.319035
2177 0.314332
2179.86 0.371202
2182.73 0.314037
2185.59 0.364901
2188.46 0.324124
2191.32 0.345373
2194.19 0.300179
2197.05 0.38075
2199.92 0.324591
2202.78 0.3331
2205.64 0.335379
2208.51 0.372425
2211.37 0.319867
2214.24 0.34645
2217.1 0.332978
2219.97 0.360466
2222.83 0.349046
2225.7 0.35903
2228.56 0.37454
2231.43 0.397534
2234.29 0.361493
2237.15 0.401123
2240.02 0.396146
2242.88 0.39718
2245.75 0.391494
2248.61 0.369239
2251.48 0.386465
2254.34 0.406069
2257.21 0.421032
2260.07 0.417192
2262.93 0.425485
2265.8 0.420532
2268.66 0.444223
2271.53 0.437258
2274.39 0.457463
2277.26 0.468268
2280.12 0.466584
2282.99 0.450165
2285.85 0.48534
2288.71 0.452893
2291.58 0.463623
2294.44 0.488088
2297.31 0.476477
2300.17 0.501923
2303.04 0.491428
2305.9 0.485988
2308.77 0.500497
2311.63 0.480499
2314.49 0.516976
2317.36 0.514316
2320.22 0.523884
2323.09 0.522951
2325.95 0.527995
2328.82 0.508147
2331.68 0.527761
2334.55 0.511804
2337.41 0.526627
2340.28 0.515738
2343.14 0.529127
2346 0.522431
2348.87 0.539983
2351.73 0.532858
2354.6 0.56142
2357.46 0.509864
2360.33 0.501983
2363.19 0.500535
2366.06 0.525538
2368.92 0.493309
2371.78 0.522026
2374.65 0.510701
2377.51 0.523538
2380.38 0.50744
2383.24 0.516339
2386.11 0.492183
2388.97 0.513146
2391.84 0.49722
2394.7 0.516451
2397.56 0.528733
2400.43 0.522087
2403.29 0.507327
2406.16 0.504255
2409.02 0.505174
2411.89 0.504646
2414.75 0.487461
2417.62 0.492384
2420.48 0.500193
2423.34 0.492045
2426.21 0.508129
2429.07 0.503662
2431.94 0.526769
2434.8 0.500449
2437.67 0.509997
2440.53 0.513313
2443.4 0.516811
2446.26 0.497502
2449.12 0.487188
2451.99 0.510096
2454.85 0.50413
2457.72 0.501109
2460.58 0.520877
2463.45 0.500887
2466.31 0.509433
2469.18 0.529092
2472.04 0.535743
2474.91 0.510635
2477.77 0.533977
2480.63 0.523423
2483.5 0.509359
2486.36 0.50317
2489.23 0.519422
2492.09 0.535622
2494.96 0.51451
2497.82 0.514517
2500.69 0.535797
2503.55 0.497967
2506.41 0.521044
2509.28 0.526602
2512.14 0.548971
2515.01 0.506647
2517.87 0.509989
2520.74 0.501058
2523.6 0.523327
2526.47 0.513339
2529.33 0.527151
2532.19 0.500638
2535.06 0.515511
2537.92 0.5104
2540.79 0.52654
2543.65 0.519304
2546.52 0.532336
2549.38 0.503714
2552.25 0.529009
2555.11 0.523165
2557.98 0.549209
2560.84 0.518575
2563.7 0.530389
2566.57 0.527738
2569.43 0.553181
2572.3 0.55477
2575.16 0.551924
2578.03 0.531159
2580.89 0.556907
2583.76 0.528871
2586.62 0.533818
2589.48 0.549828
2592.35 0.572864
2595.21 0.555999
2598.08 0.557726
2600.94 0.552247
2603.81 0.550342
2606.67 0.57324
2609.54 0.565117
2612.4 0.560902
2615.26 0.573462
2618.13 0.575374
2620.99 0.576636
2623.86 0.570238
2626.72 0.580213
2629.59 0.592339
2632.45 0.583178
2635.32 0.603404
2638.18 0.590534
2641.04 0.579272
2643.91 0.578139
2646.77 0.594327
2649.64 0.596769
2652.5 0.610645
2655.37 0.608585
2658.23 0.59871
2661.1 0.601668
2663.96 0.600641
2666.82 0.60717
2669.69 0.618018
2672.55 0.606554
2675.42 0.624009
2678.28 0.603315
2681.15 0.626535
2684.01 0.612865
2686.88 0.612532
2689.74 0.599087
2692.61 0.612806
2695.47 0.599003
2698.33 0.60495
2701.2 0.614552
2704.06 0.627354
2706.93 0.606981
2709.79 0.622958
2712.66 0.617268
2715.52 0.634951
2718.39 0.616681
2721.25 0.623956
2724.11 0.626241
2726.98 0.63108
2729.84 0.607736
2732.71 0.613898
2735.57 0.604096
2738.44 0.606024
2741.3 0.618072
2744.17 0.635317
2747.03 0.617138
2749.89 0.6189
2752.76 0.616193
2755.62 0.627485
2758.49 0.618479
2761.35 0.621551
2764.22 0.616719
2767.08 0.618738
2769.95 0.62263
2772.81 0.629153
2775.68 0.615678
2778.54 0.618685
2781.4 0.624606
2784.27 0.64119
2787.13 0.621997
2790 0.629057
2792.86 0.617362
2795.73 0.634096
2798.59 0.641177
2801.46 0.636303
2804.32 0.63239
2807.18 0.629449
2810.05 0.623051
2812.91 0.638586
2815.78 0.620703
2818.64 0.616894
2821.51 0.641262
2824.37 0.625741
2827.24 0.637543
2830.1 0.648793
2832.96 0.656689
2835.83 0.640438
2838.69 0.644091
2841.56 0.639485
2844.42 0.638848
2847.29 0.65912
2850.15 0.663863
2853.02 0.649503
2855.88 0.657845
2858.74 0.656359
2861.61 0.684403
2864.47 0.659875
2867.34 0.656939
2870.2 0.688856
2873.07 0.698498
2875.93 0.694517
2878.8 0.698432
2881.66 0.687146
2884.53 0.687416
2887.39 0.683352
2890.25 0.697694
2893.12 0.672065
2895.98 0.674945
2898.85 0.678498
2901.71 0.679542
2904.58 0.673377
2907.44 0.683321
2910.31 0.650855
2913.17 0.646446
2916.03 0.64379
2918.9 0.670242
2921.76 0.650963
2924.63 0.643895
2927.49 0.629096
2930.36 0.630382
2933.22 0.62202
2936.09 0.654986
2938.95 0.639387
2941.81 0.635286
2944.68 0.636097
2947.54 0.65164
2950.41 0.616892
2953.27 0.620613
2956.14 0.635919
2959 0.642745
2961.87 0.626197
2964.73 0.625825
2967.59 0.620597
2970.46 0.642153
2973.32 0.634696
2976.19 0.653276
2979.05 0.640196
2981.92 0.654809
2984.78 0.640536
2987.65 0.621399
2990.51 0.635627
2993.38 0.631785
2996.24 0.633894
2999.1 0.651089
3001.97 0.640618
3004.83 0.641006
3007.7 0.647869
3010.56 0.637132
3013.43 0.651278
3016.29 0.673258
3019.16 0.670952
3022.02 0.67188
3024.88 0.667718
3027.75 0.652876
3030.61 0.630765
3033.48 0.645194
3036.34 0.672976
3039.21 0.68506
3042.07 0.667289
3044.94 0.67586
3047.8 0.674954
3050.66 0.678687
3053.53 0.7134
3056.39 0.723182
3059.26 0.720053
3062.12 0.707508
3064.99 0.718395
3067.85 0.712263
3070.72 0.737963
3073.58 0.727736
3076.44 0.770696
3079.31 0.769529
3082.17 0.794011
3085.04 0.798315
3087.9 0.821243
3090.77 0.846699
3093.63 0.900112
3096.5 0.932115
3099.36 0.97752
3102.23 0.988962
3105.09 0.955358
3107.95 0.82372
3110.82 0.744961
3113.68 0.669807
3116.55 0.632123
3119.41 0.587854
3122.28 0.584345
3125.14 0.591903
3128.01 0.612299
3130.87 0.582157
3133.73 0.613074
3136.6 0.619542
3139.46 0.62479
3142.33 0.607863
3145.19 0.596535
3148.06 0.598212
3150.92 0.62136
3153.79 0.63333
3156.65 0.624666
3159.51 0.600927
3162.38 0.61317
3165.24 0.614897
3168.11 0.617284
3170.97 0.607684
3173.84 0.625192
3176.7 0.594503
3179.57 0.629464
3182.43 0.621398
3185.29 0.611371
3188.16 0.625374
3191.02 0.656118
3193.89 0.637788
3196.75 0.621532
3199.62 0.627364
3202.48 0.629569
3205.35 0.624088
3208.21 0.610371
3211.07 0.62449
3213.94 0.601983
3216.8 0.605318
3219.67 0.624958
3222.53 0.622127
3225.4 0.605081
3228.26 0.619513
3231.13 0.628439
3233.99 0.637489
3236.86 0.637308
3239.72 0.622837
3242.58 0.608909
3245.45 0.631393
3248.31 0.629774
3251.18 0.627859
3254.04 0.635035
3256.91 0.648334
3259.77 0.635647
3262.64 0.615697
3265.5 0.59723
3268.36 0.643558
3271.23 0.635141
3274.09 0.635817
