scanname 扫描254
timestamp 1/1/1970 00:22
ccdbias 1678.87
ccdgain 2.46132
sigmaread 11.4449
laserwavenum -0.556761
wavenumcorrection -0.829666
scancount 1
totalexposurems 1000
singleexposurems 1000
measurementstate Unknown
scanmode Identification
snr 20.3201 20.3201 20.3201
replacelist 0
peaks 24
291.066 0.618333 0 10.8933 0.00123187
356.585 0.611402 0 8.21625 0.00098182
495.056 0.553608 0 1.91672 0.000333424
569.602 0.515317 0 0.521425 0.00010773
612.999 0.518381 0 0.920181 0.000235985
745.145 0.478513 0 0.413788 0.000110097
768.641 0.473967 0 0.670996 0.000224633
807.198 0.583228 0 17.29 0.00268056
840.2 0.509573 0 7.10067 0.00117836
930.88 0.485086 0 4.88845 0.000920005
954.025 0.453571 0 1.24519 0.000351067
1078.79 0.456979 0 2.99698 0.0007061
1124.42 0.415415 0 0.142233 4.64233e-05
1201.6 0.447173 0 3.11279 0.000807334
1246.83 0.445219 0 1.59875 0.000540222
1310.9 0.438476 0 0.55487 0.000208096
1353.11 1.06174 0 27.5336 0.0092533
1376.61 0.570351 0 4.35544 0.00142354
1543.88 0.492845 0 3.47958 0.00140851
1597.5 0.458142 0 3.61395 0.00144896
1627.19 0.356859 0 0.391516 0.000106902
1825.26 0.309265 0 0.0639656 3.34398e-05
1939.68 0.280924 0 0.403275 0.000154645
1983.25 0.267267 0 0.18218 4.87289e-05
finalresult No match found 1A10697	1.88072e-35
spectrum 2048
-91.2271 0.020946
-88.6291 0.0210275
-86.0327 0.386488
-83.4382 0.232295
-80.8452 0.371277
-78.2541 0.396801
-75.6646 0.316269
-73.0767 0.406322
-70.4907 0.376774
-67.9063 0.37119
-65.3236 0.39621
-62.7426 0.35762
-60.1634 0.464862
-57.5857 0.524452
-55.0098 0.53005
-52.4356 0.501095
-49.8631 0.507234
-47.2924 0.476918
-44.7232 0.53497
-42.1558 0.563443
-39.59 0.568593
-37.0259 0.579371
-34.4636 0.601324
-31.9028 0.599062
-29.3438 0.624246
-26.7864 0.62362
-24.2309 0.63831
-21.6769 0.649909
-19.1245 0.674561
-16.5739 0.720435
-14.0249 0.768625
-11.4777 0.903383
-8.93209 1.01752
-6.38824 0.429785
-3.84596 0.163389
-1.3053 0.133128
1.23353 0.133603
3.77088 0.134276
6.30638 0.143408
8.84031 0.398626
11.3726 0.37348
13.9032 0.451486
16.4322 0.552439
18.9594 0.592101
21.485 0.528206
24.009 0.526503
26.5313 0.506105
29.052 0.514624
31.571 0.517418
34.0883 0.526167
36.604 0.523803
39.1181 0.512358
41.6304 0.485543
44.1412 0.480063
46.6503 0.444073
49.1578 0.437047
51.6636 0.41386
54.1677 0.391784
56.6703 0.384392
59.1712 0.360042
61.6704 0.349699
64.168 0.379501
66.664 0.322102
69.1584 0.342687
71.6511 0.390534
74.1421 0.35484
76.6315 0.397465
79.1194 0.428638
81.6055 0.351133
84.0901 0.378609
86.573 0.438152
89.0543 0.314513
91.534 0.388263
94.012 0.446301
96.4885 0.397131
98.9632 0.422628
101.437 0.426839
103.908 0.38976
106.378 0.415116
108.847 0.477446
111.313 0.384969
113.778 0.450968
116.242 0.455454
118.704 0.496531
121.164 0.552435
123.623 0.568974
126.08 0.594162
128.535 0.611781
130.989 0.618073
133.441 0.607356
135.892 0.600161
138.341 0.589749
140.788 0.593027
143.234 0.589566
145.678 0.588345
148.121 0.581636
150.562 0.57737
153.001 0.567046
155.439 0.567783
157.876 0.562874
160.31 0.555049
162.743 0.553644
165.175 0.554607
167.605 0.557042
170.033 0.551459
172.46 0.545872
174.885 0.547206
177.308 0.548856
179.73 0.545073
182.151 0.550265
184.569 0.548808
186.987 0.552191
189.402 0.549867
191.816 0.547495
194.229 0.546349
196.64 0.548508
199.049 0.547258
201.457 0.54829
203.863 0.554213
206.268 0.562348
208.671 0.577207
211.072 0.608727
213.472 0.634222
215.871 0.656042
218.267 0.654302
220.663 0.634863
223.056 0.616669
225.448 0.600497
227.839 0.603268
230.228 0.614027
232.615 0.624954
235.001 0.627711
237.385 0.618308
239.768 0.602542
242.149 0.580159
244.529 0.569263
246.907 0.561802
249.284 0.555901
251.659 0.554216
254.032 0.552341
256.404 0.547328
258.775 0.544575
261.144 0.542399
263.511 0.539286
265.877 0.53518
268.241 0.533947
270.603 0.535925
272.965 0.537575
275.324 0.540173
277.682 0.537917
280.039 0.542521
282.394 0.550903
284.747 0.567237
287.099 0.596215
289.45 0.622428
291.798 0.623611
294.146 0.600882
296.492 0.57161
298.836 0.551574
301.179 0.539988
303.52 0.534215
305.86 0.532124
308.198 0.531914
310.535 0.531513
312.87 0.531481
315.203 0.532797
317.535 0.530406
319.866 0.527707
322.195 0.529864
324.523 0.529721
326.849 0.530459
329.173 0.533736
331.497 0.528778
333.818 0.530972
336.138 0.528687
338.457 0.531062
340.774 0.531348
343.089 0.533925
345.403 0.539222
347.716 0.549608
350.027 0.567905
352.336 0.592389
354.644 0.61188
356.951 0.614355
359.256 0.602005
361.559 0.579983
363.861 0.564248
366.162 0.550892
368.461 0.542982
370.759 0.5411
373.055 0.5383
375.349 0.532741
377.642 0.527471
379.934 0.523856
382.224 0.525637
384.513 0.519887
386.8 0.520706
389.085 0.52045
391.37 0.523087
393.652 0.518748
395.934 0.518863
398.213 0.5205
400.492 0.516197
402.769 0.51656
405.044 0.515893
407.318 0.518963
409.59 0.518408
411.861 0.519744
414.131 0.517184
416.398 0.517274
418.665 0.515591
420.93 0.517475
423.194 0.517958
425.456 0.519222
427.716 0.515882
429.976 0.517691
432.233 0.520391
434.49 0.517114
436.744 0.514977
438.998 0.51708
441.25 0.515727
443.5 0.518799
445.749 0.515038
447.997 0.51633
450.243 0.519362
452.487 0.519332
454.73 0.519935
456.972 0.524538
459.212 0.521107
461.451 0.527047
463.689 0.52691
465.925 0.52987
468.159 0.531281
470.392 0.536815
472.624 0.534056
474.854 0.536358
477.083 0.535659
479.31 0.534194
481.536 0.538309
483.76 0.536507
485.983 0.539898
488.205 0.541876
490.425 0.548411
492.644 0.548869
494.861 0.552263
497.077 0.554805
499.291 0.546572
501.504 0.541772
503.715 0.527262
505.926 0.524594
508.134 0.519087
510.342 0.517333
512.547 0.513588
514.752 0.511552
516.955 0.512023
519.156 0.513322
521.357 0.512359
523.555 0.511923
525.753 0.509525
527.949 0.513266
530.143 0.504562
532.336 0.506746
534.528 0.510164
536.718 0.510462
538.907 0.507037
541.094 0.506347
543.28 0.504848
545.465 0.507363
547.648 0.506919
549.83 0.509483
552.01 0.509367
554.19 0.506865
556.367 0.507809
558.543 0.507054
560.718 0.51121
562.892 0.51023
565.064 0.512255
567.234 0.515622
569.403 0.518237
571.571 0.510849
573.738 0.515614
575.903 0.510399
578.066 0.506383
580.229 0.504164
582.39 0.502834
584.549 0.506002
586.707 0.502096
588.864 0.499698
591.019 0.5009
593.173 0.500655
595.326 0.502851
597.477 0.501446
599.627 0.502803
601.775 0.507917
603.922 0.507409
606.068 0.509708
608.212 0.51375
610.355 0.515123
612.497 0.518987
614.637 0.517269
616.776 0.516873
618.913 0.508567
621.049 0.503442
623.184 0.499143
625.317 0.496139
627.449 0.495653
629.58 0.494418
631.709 0.491925
633.837 0.491452
635.963 0.491318
638.088 0.492152
640.212 0.490424
642.334 0.489473
644.455 0.487977
646.575 0.486491
648.694 0.487765
650.811 0.486598
652.926 0.485872
655.04 0.485168
657.153 0.482624
659.265 0.483757
661.375 0.482691
663.484 0.484057
665.591 0.484508
667.698 0.483519
669.802 0.47985
671.906 0.48526
674.008 0.478391
676.109 0.48464
678.208 0.476039
680.306 0.484255
682.403 0.481442
684.499 0.481696
686.593 0.478327
688.685 0.474966
690.777 0.477663
692.867 0.480465
694.956 0.480346
697.043 0.478653
699.129 0.480513
701.214 0.478888
703.297 0.481091
705.379 0.47578
707.46 0.478033
709.54 0.476866
711.618 0.47467
713.694 0.476831
715.77 0.472518
717.844 0.470636
719.917 0.473217
721.988 0.475353
724.058 0.475744
726.127 0.471441
728.195 0.471591
730.261 0.470147
732.326 0.472453
734.389 0.470029
736.452 0.470491
738.513 0.47579
740.572 0.472979
742.631 0.477025
744.688 0.477524
746.743 0.480699
748.798 0.478944
750.851 0.473718
752.903 0.471302
754.953 0.470777
757.002 0.469651
759.05 0.466827
761.096 0.467816
763.142 0.466798
765.186 0.470317
767.228 0.476152
769.27 0.474591
771.31 0.469718
773.348 0.468698
775.386 0.464688
777.422 0.460283
779.457 0.461234
781.491 0.459385
783.523 0.459967
785.554 0.458102
787.584 0.461693
789.612 0.458472
791.639 0.461586
793.665 0.459193
795.689 0.461475
797.713 0.466587
799.735 0.476906
801.755 0.49917
803.775 0.552846
805.793 0.586943
807.81 0.584631
809.825 0.562397
811.84 0.509416
813.853 0.475115
815.864 0.463797
817.875 0.457647
819.884 0.458137
821.892 0.456691
823.899 0.456155
825.904 0.452737
827.908 0.452637
829.911 0.45588
831.913 0.458723
833.913 0.465669
835.912 0.482064
837.91 0.50365
839.906 0.51465
841.901 0.507368
843.895 0.487668
845.888 0.473795
847.879 0.45794
849.87 0.453855
851.859 0.452903
853.846 0.450958
855.833 0.451845
857.818 0.448433
859.802 0.449001
861.784 0.442868
863.766 0.447698
865.746 0.442232
867.725 0.444071
869.702 0.444312
871.679 0.442809
873.654 0.443547
875.628 0.442914
877.6 0.443398
879.572 0.439427
881.542 0.440263
883.511 0.442096
885.479 0.441783
887.445 0.441179
889.41 0.441396
891.374 0.443635
893.337 0.442221
895.298 0.438224
897.258 0.438502
899.217 0.439971
901.175 0.442417
903.132 0.437987
905.087 0.441966
907.041 0.441322
908.994 0.440608
910.945 0.444832
912.896 0.444935
914.845 0.439403
916.793 0.441084
918.739 0.439443
920.685 0.442722
922.629 0.442954
924.572 0.450598
926.514 0.464359
928.454 0.47829
930.394 0.487756
932.332 0.482763
934.269 0.475336
936.204 0.458133
938.139 0.447475
940.072 0.442917
942.004 0.440036
943.935 0.440195
945.864 0.43626
947.793 0.440719
949.72 0.447517
951.646 0.447466
953.57 0.456395
955.494 0.452546
957.416 0.450891
959.337 0.442562
961.257 0.438387
963.176 0.432375
965.093 0.433123
967.01 0.431864
968.925 0.430529
970.839 0.430753
972.751 0.430948
974.663 0.429213
976.573 0.429179
978.482 0.428049
980.39 0.427932
982.297 0.428104
984.202 0.426639
986.106 0.425736
988.009 0.425848
989.911 0.430151
991.812 0.427119
993.711 0.424311
995.61 0.425103
997.507 0.423518
999.403 0.426661
1001.3 0.425699
1003.19 0.424671
1005.08 0.426288
1006.97 0.423151
1008.86 0.428192
1010.75 0.421878
1012.64 0.422021
1014.53 0.420392
1016.41 0.42444
1018.3 0.426208
1020.18 0.421919
1022.06 0.426308
1023.94 0.421647
1025.82 0.420646
1027.7 0.419769
1029.58 0.421096
1031.45 0.414179
1033.33 0.417494
1035.2 0.418286
1037.07 0.41947
1038.94 0.424036
1040.81 0.422086
1042.68 0.421582
1044.55 0.419638
1046.42 0.41718
1048.28 0.42254
1050.15 0.416665
1052.01 0.418941
1053.87 0.416941
1055.73 0.41755
1057.59 0.418662
1059.45 0.415476
1061.31 0.420855
1063.16 0.423527
1065.02 0.420993
1066.87 0.419963
1068.72 0.422868
1070.58 0.427869
1072.43 0.428692
1074.28 0.443902
1076.12 0.448847
1077.97 0.455942
1079.82 0.459061
1081.66 0.451303
1083.5 0.440425
1085.35 0.431884
1087.19 0.423092
1089.03 0.42397
1090.87 0.41479
1092.7 0.413843
1094.54 0.412521
1096.37 0.415023
1098.21 0.412596
1100.04 0.408977
1101.87 0.409033
1103.7 0.410766
1105.53 0.415928
1107.36 0.410174
1109.19 0.411668
1111.02 0.408611
1112.84 0.408133
1114.66 0.411493
1116.49 0.411456
1118.31 0.412125
1120.13 0.413547
1121.95 0.415072
1123.77 0.418048
1125.58 0.417798
1127.4 0.414305
1129.22 0.41297
1131.03 0.412697
1132.84 0.41248
1134.65 0.413098
1136.46 0.410799
1138.27 0.413469
1140.08 0.410195
1141.89 0.411385
1143.69 0.411398
1145.5 0.408488
1147.3 0.411321
1149.1 0.407979
1150.91 0.409193
1152.71 0.408859
1154.51 0.40489
1156.3 0.407973
1158.1 0.406639
1159.9 0.405349
1161.69 0.404792
1163.48 0.401699
1165.28 0.402347
1167.07 0.406118
1168.86 0.40548
1170.65 0.400379
1172.44 0.406639
1174.22 0.406212
1176.01 0.409224
1177.79 0.404727
1179.58 0.409091
1181.36 0.404565
1183.14 0.408037
1184.92 0.403729
1186.7 0.411008
1188.48 0.4057
1190.26 0.406039
1192.03 0.409904
1193.81 0.412718
1195.58 0.421711
1197.35 0.43285
1199.12 0.439928
1200.89 0.449902
1202.66 0.446721
1204.43 0.438989
1206.2 0.429316
1207.97 0.415368
1209.73 0.414408
1211.49 0.410151
1213.26 0.411612
1215.02 0.410688
1216.78 0.405185
1218.54 0.409023
1220.3 0.403164
1222.06 0.408782
1223.81 0.405649
1225.57 0.403737
1227.32 0.404553
1229.07 0.407504
1230.83 0.406106
1232.58 0.410326
1234.33 0.409938
1236.07 0.413075
1237.82 0.415931
1239.57 0.425025
1241.31 0.429725
1243.06 0.437102
1244.8 0.443859
1246.54 0.445174
1248.29 0.443422
1250.03 0.439871
1251.77 0.431991
1253.5 0.421218
1255.24 0.413365
1256.98 0.408995
1258.71 0.40209
1260.44 0.40292
1262.18 0.403773
1263.91 0.402556
1265.64 0.404029
1267.37 0.399918
1269.1 0.400566
1270.82 0.40098
1272.55 0.402013
1274.28 0.400459
1276 0.402845
1277.72 0.400555
1279.44 0.402407
1281.17 0.40264
1282.89 0.40357
1284.6 0.402599
1286.32 0.40362
1288.04 0.406839
1289.75 0.402439
1291.47 0.410031
1293.18 0.406946
1294.9 0.411995
1296.61 0.410185
1298.32 0.417275
1300.03 0.416599
1301.73 0.422123
1303.44 0.427441
1305.15 0.430365
1306.85 0.435256
1308.56 0.437914
1310.26 0.438669
1311.96 0.439379
1313.66 0.434106
1315.36 0.435711
1317.06 0.430496
1318.76 0.428299
1320.46 0.425059
1322.15 0.432194
1323.85 0.431603
1325.54 0.431281
1327.23 0.437392
1328.93 0.440415
1330.62 0.448623
1332.31 0.459406
1334 0.47705
1335.68 0.499749
1337.37 0.533776
1339.05 0.569489
1340.74 0.598561
1342.42 0.621755
1344.1 0.643984
1345.79 0.690325
1347.47 0.781066
1349.15 0.895273
1350.82 1.00378
1352.5 1.07207
1354.18 1.06315
1355.85 0.984423
1357.53 0.879814
1359.2 0.774757
1360.87 0.700835
1362.54 0.643041
1364.21 0.60516
1365.88 0.579317
1367.55 0.559444
1369.22 0.543375
1370.88 0.545968
1372.55 0.548865
1374.21 0.556719
1375.88 0.573277
1377.54 0.570169
1379.2 0.560919
1380.86 0.542039
1382.52 0.521783
1384.17 0.497205
1385.83 0.491931
1387.49 0.481379
1389.14 0.477911
1390.8 0.469875
1392.45 0.455364
1394.1 0.446137
1395.75 0.432316
1397.4 0.426915
1399.05 0.417239
1400.7 0.414545
1402.35 0.409375
1403.99 0.411928
1405.64 0.409788
1407.28 0.404559
1408.92 0.407314
1410.56 0.407104
1412.21 0.405812
1413.85 0.402834
1415.48 0.405612
1417.12 0.400385
1418.76 0.399394
1420.39 0.400797
1422.03 0.402462
1423.66 0.399688
1425.3 0.394505
1426.93 0.398053
1428.56 0.398798
1430.19 0.395254
1431.82 0.394926
1433.45 0.394857
1435.07 0.390773
1436.7 0.390485
1438.32 0.38815
1439.95 0.386426
1441.57 0.392801
1443.19 0.394199
1444.81 0.389944
1446.43 0.391603
1448.05 0.390804
1449.67 0.388673
1451.29 0.388204
1452.9 0.385697
1454.52 0.383635
1456.13 0.388345
1457.75 0.384056
1459.36 0.386218
1460.97 0.386338
1462.58 0.385046
1464.19 0.386657
1465.8 0.383501
1467.41 0.386289
1469.01 0.381024
1470.62 0.382904
1472.22 0.376274
1473.83 0.381062
1475.43 0.377633
1477.03 0.378873
1478.63 0.377353
1480.23 0.381762
1481.83 0.381216
1483.43 0.383588
1485.02 0.38245
1486.62 0.380009
1488.21 0.381944
1489.81 0.379307
1491.4 0.376361
1492.99 0.379864
1494.58 0.38261
1496.17 0.378586
1497.76 0.379084
1499.35 0.378973
1500.94 0.378053
1502.52 0.38053
1504.11 0.381498
1505.69 0.378778
1507.27 0.377914
1508.86 0.377455
1510.44 0.381656
1512.02 0.37874
1513.6 0.37959
1515.18 0.383289
1516.75 0.382099
1518.33 0.3848
1519.91 0.379263
1521.48 0.382482
1523.05 0.381444
1524.63 0.38227
1526.2 0.387674
1527.77 0.385529
1529.34 0.385341
1530.91 0.393264
1532.48 0.398777
1534.04 0.409458
1535.61 0.418084
1537.18 0.436128
1538.74 0.455913
1540.3 0.471672
1541.87 0.491917
1543.43 0.492563
1544.99 0.488579
1546.55 0.482308
1548.11 0.468718
1549.66 0.461614
1551.22 0.450915
1552.78 0.438948
1554.33 0.433095
1555.88 0.423212
1557.44 0.416056
1558.99 0.418463
1560.54 0.414768
1562.09 0.409261
1563.64 0.402282
1565.19 0.393774
1566.74 0.384413
1568.28 0.379222
1569.83 0.371368
1571.37 0.370481
1572.92 0.367728
1574.46 0.372277
1576 0.370163
1577.54 0.372904
1579.08 0.370722
1580.62 0.369635
1582.16 0.372541
1583.7 0.378924
1585.23 0.382354
1586.77 0.384447
1588.3 0.390431
1589.84 0.404811
1591.37 0.407564
1592.9 0.433799
1594.43 0.443253
1595.96 0.4546
1597.49 0.461293
1599.02 0.455802
1600.55 0.442288
1602.07 0.424928
1603.6 0.406734
1605.12 0.391206
1606.64 0.385047
1608.17 0.379648
1609.69 0.371727
1611.21 0.364054
1612.73 0.354072
1614.25 0.361856
1615.77 0.355546
1617.28 0.358783
1618.8 0.354157
1620.31 0.356715
1621.83 0.353902
1623.34 0.353598
1624.86 0.357564
1626.37 0.357268
1627.88 0.357419
1629.39 0.35772
1630.9 0.354205
1632.4 0.352968
1633.91 0.349363
1635.42 0.351676
1636.92 0.347725
1638.43 0.343248
1639.93 0.339202
1641.43 0.341104
1642.94 0.340159
1644.44 0.33875
1645.94 0.337929
1647.44 0.339601
1648.93 0.338886
1650.43 0.335315
1651.93 0.334992
1653.42 0.33791
1654.92 0.334798
1656.41 0.335971
1657.9 0.334372
1659.4 0.33245
1660.89 0.332936
1662.38 0.330967
1663.87 0.329135
1665.36 0.330766
1666.84 0.328363
1668.33 0.327252
1669.81 0.325169
1671.3 0.328527
1672.78 0.324307
1674.27 0.323817
1675.75 0.320564
1677.23 0.320895
1678.71 0.318246
1680.19 0.317411
1681.67 0.316092
1683.15 0.315193
1684.62 0.316336
1686.1 0.314272
1687.57 0.312597
1689.05 0.318636
1690.52 0.315988
1691.99 0.319704
1693.47 0.320446
1694.94 0.320137
1696.41 0.319464
1697.88 0.322405
1699.34 0.32448
1700.81 0.319012
1702.28 0.322592
1703.74 0.322036
1705.21 0.323613
1706.67 0.325906
1708.13 0.322932
1709.6 0.322783
1711.06 0.321041
1712.52 0.321653
1713.98 0.321814
1715.44 0.323848
1716.89 0.31957
1718.35 0.320269
1719.81 0.315553
1721.26 0.320951
1722.72 0.321812
1724.17 0.31486
1725.62 0.31448
1727.07 0.31551
1728.52 0.316257
1729.97 0.311951
1731.42 0.316844
1732.87 0.311489
1734.32 0.318402
1735.77 0.313636
1737.21 0.314551
1738.66 0.311133
1740.1 0.311031
1741.54 0.307162
1742.98 0.310336
1744.43 0.312316
1745.87 0.309961
1747.31 0.307829
1748.74 0.311961
1750.18 0.311596
1751.62 0.307749
1753.06 0.31032
1754.49 0.306538
1755.93 0.309351
1757.36 0.308374
1758.79 0.309894
1760.22 0.307438
1761.66 0.310133
1763.09 0.308288
1764.52 0.306246
1765.94 0.310609
1767.37 0.307337
1768.8 0.307796
1770.22 0.307883
1771.65 0.305571
1773.07 0.303151
1774.5 0.302726
1775.92 0.299544
1777.34 0.304148
1778.76 0.300886
1780.18 0.300627
1781.6 0.298589
1783.02 0.300995
1784.44 0.298986
1785.86 0.301189
1787.27 0.298394
1788.69 0.300537
1790.1 0.29948
1791.51 0.298764
1792.93 0.301803
1794.34 0.301842
1795.75 0.29914
1797.16 0.303684
1798.57 0.306379
1799.98 0.307346
1801.39 0.305201
1802.79 0.306774
1804.2 0.307434
1805.6 0.30299
1807.01 0.307669
1808.41 0.30983
1809.81 0.308439
1811.22 0.311567
1812.62 0.311869
1814.02 0.310425
1815.42 0.314145
1816.81 0.309535
1818.21 0.309772
1819.61 0.306476
1821 0.310881
1822.4 0.306354
1823.79 0.313747
1825.19 0.306107
1826.58 0.309065
1827.97 0.30837
1829.36 0.312685
1830.75 0.308839
1832.14 0.304591
1833.53 0.307215
1834.92 0.307823
1836.31 0.302171
1837.69 0.305195
1839.08 0.303094
1840.46 0.301916
1841.85 0.29673
1843.23 0.301298
1844.61 0.296745
1845.99 0.2942
1847.37 0.294613
1848.75 0.295245
1850.13 0.292658
1851.51 0.291313
1852.89 0.286545
1854.26 0.292556
1855.64 0.288601
1857.01 0.290287
1858.39 0.287905
1859.76 0.283832
1861.13 0.282325
1862.5 0.286573
1863.87 0.282228
1865.24 0.280851
1866.61 0.284892
1867.98 0.284524
1869.35 0.279079
1870.72 0.283741
1872.08 0.281651
1873.45 0.2799
1874.81 0.280584
1876.18 0.279751
1877.54 0.277756
1878.9 0.275419
1880.26 0.27385
1881.62 0.270483
1882.98 0.276864
1884.34 0.273837
1885.7 0.272245
1887.05 0.27208
1888.41 0.270635
1889.77 0.267702
1891.12 0.272355
1892.47 0.272093
1893.83 0.270445
1895.18 0.269566
1896.53 0.267476
1897.88 0.267257
1899.23 0.270904
1900.58 0.272922
1901.93 0.270568
1903.28 0.268922
1904.62 0.272035
1905.97 0.26799
1907.31 0.274746
1908.66 0.276596
1910 0.272765
1911.35 0.272651
1912.69 0.275401
1914.03 0.276476
1915.37 0.27415
1916.71 0.271453
1918.05 0.274665
1919.39 0.28019
1920.72 0.272598
1922.06 0.276366
1923.4 0.278802
1924.73 0.276712
1926.06 0.278556
1927.4 0.277247
1928.73 0.276614
1930.06 0.278575
1931.39 0.27617
1932.72 0.272734
1934.05 0.277297
1935.38 0.280756
1936.71 0.277089
1938.04 0.277931
1939.36 0.281535
1940.69 0.280829
1942.01 0.279169
1943.34 0.278697
1944.66 0.28231
1945.98 0.271019
1947.3 0.274561
1948.62 0.266654
1949.94 0.267499
1951.26 0.26911
1952.58 0.264818
1953.9 0.262929
1955.22 0.262424
1956.53 0.258002
1957.85 0.255987
1959.16 0.257805
1960.48 0.258449
1961.79 0.255701
1963.1 0.256549
1964.41 0.256145
1965.73 0.252639
1967.04 0.257604
1968.35 0.259485
1969.65 0.26079
1970.96 0.261708
1972.27 0.263062
1973.57 0.261975
1974.88 0.263601
1976.18 0.264098
1977.49 0.264986
1978.79 0.269464
1980.09 0.268739
