scanname 扫描250
timestamp 1/1/1970 00:14
scancount 1
laserwavenum 850.5
measurementstate Unknown
scanmode Identification
snr 6.22887 6.22887 6.22887
replacelist 0
peaks 18
735.554 0.128008 0 2.04432 0.000422144
753.257 0.120686 0 2.94868 0.00043849
773.528 0.0986715 0 2.74632 0.000319638
801.739 0.113156 0 6.17168 0.000482252
829.47 0.107364 0 5.64625 0.000360231
846.722 0.114236 0 9.31652 0.000489505
907.831 0.0980513 0 9.34824 0.000333882
942.966 0.0786603 0 7.05151 0.000204613
981.279 0.0609055 0 1.13635 4.11542e-05
1036.38 0.0827212 0 3.69005 9.50768e-05
1159.17 0.101557 0 6.21264 0.000248068
1191.44 0.0920248 0 2.80534 0.00014084
1342.58 0.232116 0 10.1325 0.000445369
1403.26 0.0918856 0 2.13042 0.000102761
1468.47 0.133874 0 4.23527 0.000192044
1535.53 0.255211 0 5.99346 0.000340669
1597.11 0.0726657 0 3.61842 0.000155593
3086.1 0.0726998 0 2.10313 0.000127218
finalresult No match found 1A12650	3.05509e-19
spectrum 2048
0 -6.43571
2.86447 -6.14031
5.72895 -4.04965
8.59342 -4.95702
11.4579 -2.52443
14.3224 2.38648
17.1868 -1.86283
20.0513 4.60729
22.9158 6.142
25.7803 1.09524
28.6447 2.10524
31.5092 10.6201
34.3737 0.756134
37.2382 -1.0355
40.1026 1.60782
42.9671 0.674239
45.8316 4.39559
48.696 1.22707
51.5605 0.117571
54.425 3.23376
57.2895 4.73235
60.1539 4.29958
63.0184 -0.262498
65.8829 -0.155731
68.7474 2.35497
71.6118 -2.99309
74.4763 -3.22432
77.3408 4.48436
80.2053 -2.23407
83.0697 0.99283
85.9342 -0.479956
88.7987 1.1622
91.6632 5.43278
94.5276 -0.969565
97.3921 2.04885
100.257 1.95869
103.121 0.160474
105.986 3.05075
108.85 2.99825
111.714 1.44094
114.579 6.70711
117.443 0.484641
120.308 -0.111055
123.172 2.85108
126.037 0.981707
128.901 -1.76202
131.766 -0.664379
134.63 1.0123
137.495 -5.03971
140.359 -2.4811
143.224 -0.858273
146.088 -1.33131
148.953 0.540444
151.817 -1.74946
154.682 1.30933
157.546 1.88005
160.411 -1.27919
163.275 2.88951
166.139 -0.444399
169.004 -0.109926
171.868 1.48693
174.733 -3.46239
177.597 -0.1653
180.462 -2.21057
183.326 2.57587
186.191 0.947966
189.055 1.1635
191.92 3.07862
194.784 1.80451
197.649 2.35068
200.513 1.87562
203.378 8.09984
206.242 -2.79194
209.107 -0.760172
211.971 0.718255
214.836 0.696918
217.7 2.47402
220.564 -0.926758
223.429 3.80909
226.293 2.01124
229.158 3.35008
232.022 -0.529379
234.887 5.7886
237.751 -1.78179
240.616 2.39747
243.48 -0.0863762
246.345 0.311232
249.209 5.23033
252.074 3.59887
254.938 -0.817004
257.803 1.12509
260.667 2.25273
263.532 0.659785
266.396 4.78868
269.26 0.650432
272.125 0.762163
274.989 -2.83778
277.854 -2.0651
280.718 4.12475
283.583 0.142061
286.447 -0.967663
289.312 -1.2103
292.176 -1.53011
295.041 2.37334
297.905 0.403885
300.77 -1.93504
303.634 -2.32075
306.499 -1.99311
309.363 -0.474551
312.228 3.79632
315.092 5.72348
317.957 1.30629
320.821 -1.39683
323.686 1.29485
326.55 -2.15942
329.414 -2.56858
332.279 0.98333
335.143 2.41034
338.008 5.06669
340.872 -0.558059
343.737 1.59798
346.601 9.80664
349.466 3.34045
352.33 0.848202
355.195 1.95886
358.059 2.5112
360.924 1.55427
363.788 -1.06516
366.653 4.85367
369.517 -1.88804
372.382 -1.38201
375.246 4.66497
378.111 -0.0177876
380.975 2.41893
383.839 -2.29623
386.704 -1.08145
389.568 2.50165
392.433 0.959439
395.297 -0.588555
398.162 0.206382
401.026 -0.838188
403.891 0.489412
406.755 3.44312
409.62 -0.869172
412.484 -2.35013
415.349 -0.0237639
418.213 4.93828
421.078 -2.35488
423.942 -0.834525
426.807 7.49421
429.671 -2.00094
432.535 -0.606004
435.4 2.26091
438.264 -1.21249
441.129 0.409984
443.993 0.537175
446.858 2.556
449.722 -3.95069
452.587 -1.78152
455.451 0.443574
458.316 -1.24045
461.18 2.42939
464.045 1.51703
466.909 7.04544
469.774 2.08307
472.638 -0.78725
475.503 3.07871
478.367 -0.129956
481.232 4.51796
484.096 2.02144
486.961 0.256455
489.825 1.3376
492.689 2.69883
495.554 -2.89188
498.418 -0.999103
501.283 -0.165208
504.147 -1.47569
507.012 1.04702
509.876 -0.844564
512.741 -1.31567
515.605 -0.601353
518.47 2.1517
521.334 2.95481
524.199 -0.246668
527.063 3.19685
529.928 2.54997
532.792 0.642766
535.657 7.21551
538.521 0.872277
541.385 4.14868
544.25 1.52012
547.115 1.28401
549.979 3.87156
552.843 -1.10306
555.708 -1.3381
558.572 2.63893
561.437 1.46577
564.301 1.256
567.166 -0.704513
570.03 4.45803
572.895 3.95858
575.759 3.64603
578.624 1.41178
581.488 0.0166463
584.353 -1.78246
587.217 -1.58321
590.082 9.59636
592.946 2.12688
595.81 1.98901
598.675 0.623571
601.539 1.2027
604.404 1.0339
607.268 1.41892
610.133 0.105856
612.997 0.292572
615.862 0.127746
618.726 0.435219
621.591 0.147344
624.455 0.0276335
627.32 0.815283
630.184 0.814373
633.049 1.21736
635.913 0.761057
638.778 1.13942
641.642 1.27712
644.507 1.32896
647.371 0.808377
650.235 0.579591
653.1 0.642941
655.964 0.679278
658.829 0.826707
661.693 0.660112
664.558 0.948074
667.422 0.71289
670.287 0.91165
673.151 0.793243
676.016 0.915775
678.88 0.899993
681.745 1.02834
684.609 0.999459
687.474 1.08751
690.338 1.0744
693.203 1.07517
696.067 1.22699
698.932 1.23972
701.796 0.783951
704.66 0.604603
707.525 0.760243
710.389 0.639912
713.254 0.743527
716.118 0.679771
718.983 0.743706
721.847 0.836843
724.712 0.814333
727.576 0.922537
730.441 1.06067
733.305 1.35818
736.17 1.60289
739.034 1.20162
741.899 0.80325
744.763 0.822194
747.628 0.83293
750.492 1.03496
753.357 1.32689
756.221 1.49377
759.086 1.05178
761.95 0.676009
764.814 0.651118
767.679 0.729178
770.543 0.881778
773.408 1.1766
776.272 1.15022
779.137 0.73747
782.001 0.682579
784.866 0.61437
787.73 0.603191
790.595 0.661891
793.459 0.723951
796.324 0.80488
799.188 0.969261
802.053 1.30016
804.917 1.47128
807.782 0.743618
810.646 0.562065
813.51 0.557808
816.375 0.594816
819.239 0.646404
822.104 0.711094
824.968 0.858387
827.833 1.05292
830.697 1.3801
833.562 1.10582
836.426 0.733865
839.291 0.710612
842.155 0.837009
845.02 1.24546
847.884 1.54048
850.749 1.03607
853.613 0.636521
856.478 0.529393
859.342 0.5313
862.207 0.515036
865.071 0.518453
867.935 0.517882
870.8 0.53119
873.664 0.552134
876.529 0.580798
879.393 0.566826
882.258 0.570983
885.122 0.598309
887.987 0.598956
890.851 0.633774
893.716 0.655487
896.58 0.669495
899.445 0.692207
902.309 0.748593
905.174 0.858441
908.038 1.0009
910.903 1.17348
913.767 0.916719
916.632 0.584846
919.496 0.527514
922.36 0.521359
925.225 0.5077
928.089 0.52956
930.954 0.546108
933.818 0.584832
936.683 0.63655
939.547 0.728687
942.412 0.808953
945.276 0.868808
948.141 0.741367
951.005 0.605316
953.87 0.541253
956.734 0.550996
959.599 0.534135
962.463 0.536547
965.328 0.54792
968.192 0.541131
971.057 0.561176
973.921 0.573315
976.785 0.606896
979.65 0.640404
982.514 0.605896
985.379 0.571011
988.243 0.587879
991.108 0.58039
993.972 0.598187
996.837 0.593675
999.701 0.6111
1002.57 0.609444
1005.43 0.616495
1008.29 0.636544
1011.16 0.625833
1014.02 0.643348
1016.89 0.65039
1019.75 0.660191
1022.62 0.694113
1025.48 0.725192
1028.35 0.751003
1031.21 0.797062
1034.07 0.821805
1036.94 0.829793
1039.8 0.832532
1042.67 0.779117
1045.53 0.746189
1048.4 0.689375
1051.26 0.686527
1054.13 0.666926
1056.99 0.646679
1059.86 0.645297
1062.72 0.647677
1065.58 0.651625
1068.45 0.653976
1071.31 0.64231
1074.18 0.644161
1077.04 0.670199
1079.91 0.657379
1082.77 0.677307
1085.64 0.663137
1088.5 0.689322
1091.36 0.664945
1094.23 0.670489
1097.09 0.694605
1099.96 0.677098
1102.82 0.69816
1105.69 0.698643
1108.55 0.687744
1111.42 0.698382
1114.28 0.725863
1117.14 0.71837
1120.01 0.736893
1122.87 0.722683
1125.74 0.751252
1128.6 0.739126
1131.47 0.783221
1134.33 0.823427
1137.2 0.802462
1140.06 0.76939
1142.92 0.7762
1145.79 0.794096
1148.65 0.790774
1151.52 0.81173
1154.38 0.883634
1157.25 0.991606
1160.11 1.17107
1162.98 1.06911
1165.84 0.748855
1168.71 0.721502
1171.57 0.705259
1174.43 0.72533
1177.3 0.768207
1180.16 0.763997
1183.03 0.807293
1185.89 0.849245
1188.76 0.907857
1191.62 0.899301
1194.49 0.953362
1197.35 0.90312
1200.21 0.769292
1203.08 0.731845
1205.94 0.764592
1208.81 0.776072
1211.67 0.813402
1214.54 0.804657
1217.4 0.753366
1220.27 0.79374
1223.13 0.802395
1225.99 0.821021
1228.86 0.849354
1231.72 0.858093
1234.59 0.867229
1237.45 0.878337
1240.32 0.883221
1243.18 0.900671
1246.05 0.936269
1248.91 0.946227
1251.78 0.984468
1254.64 0.94286
1257.5 0.940294
1260.37 0.931377
1263.23 0.961895
1266.1 0.989409
1268.96 1.01537
1271.83 1.0285
1274.69 1.05223
1277.56 1.07583
1280.42 1.10828
1283.28 1.12809
1286.15 1.16567
1289.01 1.21102
1291.88 1.21666
1294.74 1.25969
1297.61 1.26205
1300.47 1.3099
1303.34 1.35898
1306.2 1.39211
1309.06 1.45289
1311.93 1.48772
1314.79 1.50345
1317.66 1.57678
1320.52 1.65856
1323.39 1.70751
1326.25 1.77034
1329.12 1.79399
1331.98 1.90105
1334.84 1.98529
1337.71 2.12825
1340.57 2.27245
1343.44 2.39521
1346.3 2.35939
1349.17 2.10636
1352.03 1.8479
1354.9 1.66223
1357.76 1.51021
1360.62 1.31427
1363.49 1.17627
1366.35 1.08382
1369.22 1.04676
1372.08 0.991953
1374.95 0.949732
1377.81 0.886504
1380.68 0.871011
1383.54 0.930024
1386.41 0.967697
1389.27 0.949905
1392.13 0.876219
1395 0.854297
1397.86 0.872604
1400.73 0.905424
1403.59 0.927092
1406.46 0.947144
1409.32 0.879705
1412.19 0.800113
1415.05 0.761905
1417.91 0.718389
1420.78 0.735939
1423.64 0.752838
1426.51 0.823233
1429.37 0.825123
1432.24 0.876113
1435.1 0.86364
1437.97 0.878489
1440.83 0.875263
1443.69 0.910501
1446.56 0.931429
1449.42 0.974186
1452.29 1.01754
1455.15 1.0672
1458.02 1.10472
1460.88 1.14635
1463.75 1.23114
1466.61 1.31969
1469.47 1.46721
1472.34 1.37481
1475.2 1.18987
1478.07 1.13806
1480.93 1.17788
1483.8 1.24076
1486.66 1.29506
1489.53 1.33749
1492.39 1.4158
1495.26 1.47799
1498.12 1.50003
1500.98 1.64624
1503.85 1.69863
1506.71 1.68206
1509.58 1.82585
1512.44 1.92623
1515.31 2.00691
1518.17 2.10035
1521.04 2.10999
1523.9 2.21873
1526.76 2.31077
1529.63 2.41624
1532.49 2.44932
1535.36 2.596
1538.22 2.61911
1541.09 2.39576
1543.95 2.29547
1546.82 2.08264
1549.68 1.89508
1552.54 1.7305
1555.41 1.56027
1558.27 1.31535
1561.14 1.18303
1564 1.10864
1566.87 0.967773
1569.73 0.801177
1572.6 0.689925
1575.46 0.557633
1578.33 0.497272
1581.19 0.509683
1584.05 0.517926
1586.92 0.557196
1589.78 0.639983
1592.65 0.732434
1595.51 0.740687
1598.38 0.659745
1601.24 0.649416
1604.11 0.71749
1606.97 0.615615
1609.83 0.435207
1612.7 0.367595
1615.56 0.311724
1618.43 0.294438
1621.29 0.294196
1624.16 0.294163
1627.02 0.309034
1629.89 0.292665
1632.75 0.298998
1635.61 0.268848
1638.48 0.295096
1641.34 0.290074
1644.21 0.282264
1647.07 0.298939
1649.94 0.298529
1652.8 0.298692
1655.67 0.31434
1658.53 0.306462
1661.39 0.306732
1664.26 0.312347
1667.12 0.307229
1669.99 0.310223
1672.85 0.28934
1675.72 0.300354
1678.58 0.297459
1681.45 0.304881
1684.31 0.309139
1687.18 0.304455
1690.04 0.309652
1692.9 0.335932
1695.77 0.323723
1698.63 0.337148
1701.5 0.32908
1704.36 0.312918
1707.23 0.321029
1710.09 0.296886
1712.96 0.324358
1715.82 0.329913
1718.68 0.300725
1721.55 0.29393
1724.41 0.297994
1727.28 0.32778
1730.14 0.326131
1733.01 0.312812
1735.87 0.313277
1738.74 0.323218
1741.6 0.322422
1744.46 0.329305
1747.33 0.313385
1750.19 0.312347
1753.06 0.318238
1755.92 0.328375
1758.79 0.334728
1761.65 0.303655
1764.52 0.320172
1767.38 0.310815
1770.24 0.303627
1773.11 0.29972
1775.97 0.322003
1778.84 0.31436
1781.7 0.337598
1784.57 0.334911
1787.43 0.334497
1790.3 0.321051
1793.16 0.339721
1796.02 0.350249
1798.89 0.312008
1801.75 0.32455
1804.62 0.312093
1807.48 0.325091
1810.35 0.326668
1813.21 0.322958
1816.08 0.309864
1818.94 0.339318
1821.81 0.342636
1824.67 0.325558
1827.53 0.329318
1830.4 0.330366
1833.26 0.333756
1836.13 0.298746
1838.99 0.337542
1841.86 0.313798
1844.72 0.36028
1847.59 0.339515
1850.45 0.328965
1853.31 0.327372
1856.18 0.321558
1859.04 0.296573
1861.91 0.3042
1864.77 0.295807
1867.64 0.302348
1870.5 0.332264
1873.37 0.302225
1876.23 0.319789
1879.09 0.326857
1881.96 0.355903
1884.82 0.32229
1887.69 0.326467
1890.55 0.325761
1893.42 0.331921
1896.28 0.318667
1899.15 0.324995
1902.01 0.330458
1904.87 0.293236
1907.74 0.29896
1910.6 0.289446
1913.47 0.299908
1916.33 0.283277
1919.2 0.32035
1922.06 0.320256
1924.93 0.280287
1927.79 0.28126
1930.66 0.291307
1933.52 0.328095
1936.38 0.31617
1939.25 0.300287
1942.11 0.287916
1944.98 0.281627
1947.84 0.297809
1950.71 0.302648
1953.57 0.285307
1956.44 0.312766
1959.3 0.297021
1962.16 0.26275
1965.03 0.278139
1967.89 0.241522
1970.76 0.234943
1973.62 0.27174
1976.49 0.28407
1979.35 0.289953
1982.22 0.293511
1985.08 0.27746
1987.94 0.263821
1990.81 0.245755
1993.67 0.267027
1996.54 0.266935
1999.4 0.268111
2002.27 0.279089
2005.13 0.279148
2008 0.309711
2010.86 0.232575
2013.72 0.248074
2016.59 0.236003
2019.45 0.257267
2022.32 0.293494
2025.18 0.306943
2028.05 0.263881
2030.91 0.303428
2033.78 0.271344
2036.64 0.228349
2039.51 0.252114
2042.37 0.269643
2045.23 0.286981
2048.1 0.282988
2050.96 0.326169
2053.83 0.316317
2056.69 0.324877
2059.56 0.269685
2062.42 0.266815
2065.29 0.27274
2068.15 0.288957
2071.01 0.327296
2073.88 0.327518
2076.74 0.338367
2079.61 0.319553
2082.47 0.317308
2085.34 0.320889
2088.2 0.32705
2091.07 0.313015
2093.93 0.327947
2096.79 0.336344
2099.66 0.308047
2102.52 0.334581
2105.39 0.338421
2108.25 0.330169
2111.12 0.343493
2113.98 0.355191
2116.85 0.357923
2119.71 0.355922
2122.58 0.325108
2125.44 0.319877
2128.3 0.312459
2131.17 0.335872
2134.03 0.320517
2136.9 0.282493
2139.76 0.325082
2142.63 0.297707
2145.49 0.315842
2148.36 0.276763
2151.22 0.324306
2154.08 0.338744
2156.95 0.303705
2159.81 0.273814
2162.68 0.25656
2165.54 0.280032
2168.41 0.299336
2171.27 0.31073
2174.14 0.299661
2177 0.325564
2179.86 0.281514
2182.73 0.280744
2185.59 0.319988
2188.46 0.340085
2191.32 0.330215
2194.19 0.369833
2197.05 0.309399
2199.92 0.338219
2202.78 0.362641
2205.64 0.324822
2208.51 0.317633
2211.37 0.311843
2214.24 0.346801
2217.1 0.315342
2219.97 0.320769
2222.83 0.332513
2225.7 0.342832
2228.56 0.372174
2231.43 0.360365
2234.29 0.367152
2237.15 0.356783
2240.02 0.362644
2242.88 0.364545
2245.75 0.369184
2248.61 0.347833
2251.48 0.370999
2254.34 0.346908
2257.21 0.358697
2260.07 0.367491
2262.93 0.368225
2265.8 0.358199
2268.66 0.385816
2271.53 0.395075
2274.39 0.426468
2277.26 0.420339
2280.12 0.408947
2282.99 0.426932
2285.85 0.427839
2288.71 0.426618
2291.58 0.416542
2294.44 0.43213
2297.31 0.419657
2300.17 0.443852
2303.04 0.43509
2305.9 0.434945
2308.77 0.453707
2311.63 0.452738
2314.49 0.454407
2317.36 0.452585
2320.22 0.465122
2323.09 0.469564
2325.95 0.488077
2328.82 0.468264
2331.68 0.484609
2334.55 0.454847
2337.41 0.461212
2340.28 0.461634
2343.14 0.464403
2346 0.475442
2348.87 0.47784
2351.73 0.481438
2354.6 0.460422
2357.46 0.46064
2360.33 0.489514
2363.19 0.470492
2366.06 0.483136
2368.92 0.487073
2371.78 0.474896
2374.65 0.457044
2377.51 0.464435
2380.38 0.462381
2383.24 0.462829
2386.11 0.463004
2388.97 0.473049
2391.84 0.453788
2394.7 0.445561
2397.56 0.44126
2400.43 0.438668
2403.29 0.427359
2406.16 0.446272
2409.02 0.448569
2411.89 0.465365
2414.75 0.457685
2417.62 0.438937
2420.48 0.454299
2423.34 0.435049
2426.21 0.470685
2429.07 0.453107
2431.94 0.45809
2434.8 0.456648
2437.67 0.466027
2440.53 0.462445
2443.4 0.45679
2446.26 0.441236
2449.12 0.452356
2451.99 0.467621
2454.85 0.455431
2457.72 0.483233
2460.58 0.466768
2463.45 0.476741
2466.31 0.464739
2469.18 0.461558
2472.04 0.468864
2474.91 0.483023
2477.77 0.455687
2480.63 0.451949
2483.5 0.47784
2486.36 0.452622
2489.23 0.476131
2492.09 0.4604
2494.96 0.47114
2497.82 0.464672
2500.69 0.485492
2503.55 0.486877
2506.41 0.48185
2509.28 0.46899
2512.14 0.481935
2515.01 0.485073
2517.87 0.447525
2520.74 0.447975
2523.6 0.446374
2526.47 0.449858
2529.33 0.462767
2532.19 0.478368
2535.06 0.466517
2537.92 0.475722
2540.79 0.473758
2543.65 0.462058
2546.52 0.482195
2549.38 0.489877
2552.25 0.487117
2555.11 0.48649
2557.98 0.490132
2560.84 0.472012
2563.7 0.495688
2566.57 0.48467
2569.43 0.471332
2572.3 0.466698
2575.16 0.466811
2578.03 0.475756
2580.89 0.485452
2583.76 0.469506
2586.62 0.477202
2589.48 0.51614
2592.35 0.502984
2595.21 0.506213
2598.08 0.507805
2600.94 0.504743
2603.81 0.51378
2606.67 0.511507
2609.54 0.506074
2612.4 0.503574
2615.26 0.50289
2618.13 0.509852
2620.99 0.499597
2623.86 0.506005
2626.72 0.514608
2629.59 0.516464
2632.45 0.509804
2635.32 0.517899
2638.18 0.52617
2641.04 0.524156
2643.91 0.528515
2646.77 0.51415
2649.64 0.526538
2652.5 0.532146
2655.37 0.542958
2658.23 0.534703
2661.1 0.524531
2663.96 0.525823
2666.82 0.528626
2669.69 0.543646
2672.55 0.525704
2675.42 0.534075
2678.28 0.555261
2681.15 0.560237
2684.01 0.551638
2686.88 0.549814
2689.74 0.556055
2692.61 0.56279
2695.47 0.559537
2698.33 0.560539
2701.2 0.557189
2704.06 0.53739
2706.93 0.552385
2709.79 0.54195
2712.66 0.543341
2715.52 0.551548
2718.39 0.556214
2721.25 0.564049
2724.11 0.550976
2726.98 0.542283
2729.84 0.554712
2732.71 0.546145
2735.57 0.544531
2738.44 0.546938
2741.3 0.54634
2744.17 0.545932
2747.03 0.530446
2749.89 0.535415
2752.76 0.522386
2755.62 0.522092
2758.49 0.545447
2761.35 0.533691
2764.22 0.54374
2767.08 0.535303
2769.95 0.540639
2772.81 0.53668
2775.68 0.549938
2778.54 0.535445
2781.4 0.559462
2784.27 0.550436
2787.13 0.545583
2790 0.540481
2792.86 0.546061
2795.73 0.534892
2798.59 0.526152
2801.46 0.55346
2804.32 0.543433
2807.18 0.558703
2810.05 0.538475
2812.91 0.543698
2815.78 0.548993
2818.64 0.560788
2821.51 0.55031
2824.37 0.556501
2827.24 0.549619
2830.1 0.548203
2832.96 0.553353
2835.83 0.546754
2838.69 0.56124
2841.56 0.547852
2844.42 0.564058
2847.29 0.568603
2850.15 0.568177
2853.02 0.563081
2855.88 0.575629
2858.74 0.585195
2861.61 0.58033
2864.47 0.584352
2867.34 0.580272
2870.2 0.590003
2873.07 0.581635
2875.93 0.628173
2878.8 0.621739
2881.66 0.625898
2884.53 0.614884
2887.39 0.626183
2890.25 0.61556
2893.12 0.608421
2895.98 0.612944
2898.85 0.642693
2901.71 0.629567
2904.58 0.624414
2907.44 0.611531
2910.31 0.596105
2913.17 0.612488
2916.03 0.590014
2918.9 0.59231
2921.76 0.571041
2924.63 0.577057
2927.49 0.549634
2930.36 0.558231
2933.22 0.571583
2936.09 0.559664
2938.95 0.566439
2941.81 0.552077
2944.68 0.570804
2947.54 0.569813
2950.41 0.56763
2953.27 0.543983
2956.14 0.567086
2959 0.542975
2961.87 0.564022
2964.73 0.541409
2967.59 0.536103
2970.46 0.55055
2973.32 0.548508
2976.19 0.568817
2979.05 0.554725
2981.92 0.541997
2984.78 0.53916
2987.65 0.552246
2990.51 0.521581
2993.38 0.562303
2996.24 0.543895
2999.1 0.554919
3001.97 0.553599
3004.83 0.556166
3007.7 0.575219
3010.56 0.544332
3013.43 0.575114
3016.29 0.544841
3019.16 0.556503
3022.02 0.550176
3024.88 0.554333
3027.75 0.561481
3030.61 0.556758
3033.48 0.551992
3036.34 0.558503
3039.21 0.571191
3042.07 0.577385
3044.94 0.604525
3047.8 0.591237
3050.66 0.598854
3053.53 0.590865
3056.39 0.611878
3059.26 0.591679
3062.12 0.567662
3064.99 0.576039
3067.85 0.598583
3070.72 0.596725
3073.58 0.625106
3076.44 0.61186
3079.31 0.629818
3082.17 0.724036
3085.04 0.759885
3087.9 0.761424
3090.77 0.667062
3093.63 0.614488
3096.5 0.574198
3099.36 0.533785
3102.23 0.542721
3105.09 0.523216
3107.95 0.523312
3110.82 0.525887
3113.68 0.53481
3116.55 0.533394
3119.41 0.550623
3122.28 0.528234
3125.14 0.535786
3128.01 0.54472
3130.87 0.523246
3133.73 0.550166
3136.6 0.505688
3139.46 0.549257
3142.33 0.527807
3145.19 0.546984
3148.06 0.548616
3150.92 0.542803
3153.79 0.531119
3156.65 0.544868
3159.51 0.53381
3162.38 0.545818
3165.24 0.534215
3168.11 0.526198
3170.97 0.527904
3173.84 0.521006
3176.7 0.547754
3179.57 0.544784
3182.43 0.564505
3185.29 0.543367
3188.16 0.534802
3191.02 0.565275
3193.89 0.569224
3196.75 0.532606
3199.62 0.528861
3202.48 0.541188
3205.35 0.55752
3208.21 0.555376
3211.07 0.545507
3213.94 0.549069
3216.8 0.515595
3219.67 0.550061
3222.53 0.535191
3225.4 0.507106
3228.26 0.539892
3231.13 0.543889
3233.99 0.552339
3236.86 0.546843
3239.72 0.555519
3242.58 0.548817
3245.45 0.535354
3248.31 0.512378
3251.18 0.542311
3254.04 0.548744
3256.91 0.532526
3259.77 0.526786
3262.64 0.536515
3265.5 0.547616
3268.36 0.55868
3271.23 0.553531
3274.09 0.571795
3276.96 0.550941
3279.82 0.54782
