scanname 扫描255
timestamp 1/1/1970 00:24
scancount 1
laserwavenum 850.5
measurementstate Unknown
scanmode Identification
snr 7.21228 7.21228 7.21228
replacelist 0
peaks 18
735.076 0.152228 0 3.22416 0.000558296
800.117 0.115116 0 6.07861 0.00045606
835.318 0.141411 0 15.198 0.000787175
910.928 0.113109 0 12.2177 0.000407998
928.911 0.084427 0 7.24682 0.00022273
1040.23 0.076972 0 2.98821 7.82743e-05
1076.75 0.100387 0 8.60501 0.000262431
1124.63 0.0763122 0 1.1897 6.81527e-05
1198.44 0.0940856 0 3.15702 0.000147579
1309.57 0.155264 0 4.50688 0.000182417
1336.75 0.19684 0 11.7688 0.000444169
1374.04 0.0650762 0 2.36369 9.77385e-05
1418.29 0.0883236 0 4.95376 0.000181142
1447.2 0.0886456 0 1.22158 7.01108e-05
1536.25 0.204685 0 8.9784 0.000410186
1595.66 0.0428777 0 3.13791 0.000124194
1628.92 0.0426266 0 3.41433 0.000149626
3100.15 0.0694755 0 2.52808 0.000137703
finalresult No match found 1A3666	2.20854e-14
spectrum 2048
0 -8.33805
2.86447 -7.9225
5.72895 -6.17933
8.59342 -6.61578
11.4579 -3.91163
14.3224 -1.68652
17.1868 -2.62047
20.0513 -1.2017
22.9158 1.12537
25.7803 1.60342
28.6447 1.45589
31.5092 1.66249
34.3737 5.27806
37.2382 4.77962
40.1026 -0.274405
42.9671 8.91178
45.8316 1.8999
48.696 3.20474
51.5605 5.8653
54.425 0.856622
57.2895 0.45697
60.1539 -1.83134
63.0184 -4.00927
65.8829 -2.22564
68.7474 -0.450541
71.6118 -4.26359
74.4763 -6.31321
77.3408 -3.98502
80.2053 2.5012
83.0697 -0.07905
85.9342 0.886122
88.7987 0.283556
91.6632 3.1783
94.5276 3.64338
97.3921 4.07372
100.257 2.56468
103.121 -2.50729
105.986 -0.762927
108.85 4.27235
111.714 1.49618
114.579 2.87756
117.443 -0.455919
120.308 -2.05496
123.172 0.198018
126.037 -0.617919
128.901 0.0282656
131.766 3.80578
134.63 6.60278
137.495 3.43169
140.359 1.82241
143.224 1.56507
146.088 3.34347
148.953 2.3541
151.817 1.7447
154.682 4.11733
157.546 -1.30658
160.411 -1.44266
163.275 1.22903
166.139 0.224444
169.004 1.25723
171.868 -0.369877
174.733 -3.9358
177.597 -2.46565
180.462 -1.76932
183.326 3.60901
186.191 1.27526
189.055 -0.702485
191.92 5.0096
194.784 10.4335
197.649 -0.781667
200.513 0.130172
203.378 1.253
206.242 -2.85785
209.107 -1.57466
211.971 6.48469
214.836 5.82838
217.7 2.82409
220.564 -1.78204
223.429 -0.246666
226.293 -0.791318
229.158 0.235572
232.022 -0.296392
234.887 0.996078
237.751 -2.10626
240.616 -0.372582
243.48 2.94844
246.345 5.27732
249.209 4.1363
252.074 5.42594
254.938 4.87725
257.803 1.89004
260.667 4.20524
263.532 -0.454118
266.396 3.97695
269.26 0.744517
272.125 1.75639
274.989 -0.792643
277.854 4.44944
280.718 2.64517
283.583 -0.714137
286.447 1.07723
289.312 0.0833611
292.176 2.09953
295.041 5.74489
297.905 3.1594
300.77 2.063
303.634 2.56612
306.499 -0.345463
309.363 0.174736
312.228 7.93411
315.092 5.0183
317.957 1.16672
320.821 2.77125
323.686 0.936842
326.55 3.1546
329.414 2.08598
332.279 0.85086
335.143 0.593979
338.008 1.89962
340.872 1.84514
343.737 0.491696
346.601 1.02638
349.466 1.18096
352.33 -2.30887
355.195 -1.13285
358.059 -0.593391
360.924 -1.30202
363.788 -2.214
366.653 0.680771
369.517 0.817534
372.382 1.75827
375.246 1.97667
378.111 1.87264
380.975 1.33808
383.839 -0.739768
386.704 -3.34677
389.568 0.361471
392.433 3.3188
395.297 3.73131
398.162 0.255327
401.026 -1.42138
403.891 3.59503
406.755 2.27346
409.62 -0.924338
412.484 -0.135577
415.349 3.19861
418.213 7.62753
421.078 0.730362
423.942 1.95394
426.807 1.96711
429.671 2.33848
432.535 -0.751554
435.4 0.519814
438.264 0.219902
441.129 2.30699
443.993 1.75588
446.858 2.64306
449.722 2.15567
452.587 -1.0257
455.451 -2.35259
458.316 -3.53264
461.18 -1.43513
464.045 -1.51819
466.909 1.99096
469.774 1.13937
472.638 1.60892
475.503 0.602293
478.367 5.08962
481.232 2.46003
484.096 -0.131515
486.961 -2.30344
489.825 1.16926
492.689 5.8019
495.554 -0.092445
498.418 3.6786
501.283 2.4578
504.147 -1.58563
507.012 -1.49709
509.876 -0.931065
512.741 -0.95293
515.605 9.64167
518.47 4.55634
521.334 3.95073
524.199 0.556551
527.063 2.7625
529.928 0.547579
532.792 3.07875
535.657 0.205511
538.521 -1.25291
541.385 4.7576
544.25 -1.32754
547.115 -0.831349
549.979 -1.26048
552.843 4.73831
555.708 0.286872
558.572 0.0262374
561.437 -3.7186
564.301 -0.55493
567.166 2.24138
570.03 4.12754
572.895 3.55857
575.759 2.31542
578.624 -0.925301
581.488 0.051158
584.353 -0.792184
587.217 -0.508841
590.082 0.451489
592.946 4.10824
595.81 2.94072
598.675 1.00759
601.539 1.70864
604.404 0.821258
607.268 1.13093
610.133 1.42918
612.997 1.11444
615.862 0.419782
618.726 0.561444
621.591 0.574553
624.455 0.820693
627.32 0.840781
630.184 0.284278
633.049 0.309326
635.913 0.795762
638.778 0.596641
641.642 0.482167
644.507 0.365908
647.371 0.325785
650.235 0.689203
653.1 0.840502
655.964 0.76044
658.829 0.931095
661.693 0.66337
664.558 0.757545
667.422 0.676546
670.287 0.552891
673.151 0.636135
676.016 0.602895
678.88 0.602837
681.745 0.581088
684.609 0.699321
687.474 0.887706
690.338 0.774391
693.203 0.853777
696.067 0.708779
698.932 0.835199
701.796 0.93359
704.66 1.027
707.525 0.872861
710.389 0.788282
713.254 0.842174
716.118 0.793054
718.983 0.885224
721.847 0.939651
724.712 1.00444
727.576 1.17183
730.441 1.23055
733.305 1.47792
736.17 1.61644
739.034 1.66556
741.899 1.16931
744.763 0.813683
747.628 0.7295
750.492 0.729558
753.357 0.662533
756.221 0.603736
759.086 0.61676
761.95 0.655437
764.814 0.680999
767.679 0.796266
770.543 0.73059
773.408 0.616525
776.272 0.638323
779.137 0.663801
782.001 0.70076
784.866 0.764355
787.73 0.795971
790.595 0.808056
793.459 0.891465
796.324 0.979247
799.188 1.06743
802.053 1.31041
804.917 1.26198
807.782 0.725546
810.646 0.454005
813.51 0.452525
816.375 0.485028
819.239 0.539658
822.104 0.616429
824.968 0.716035
827.833 0.84886
830.697 1.02512
833.562 1.29845
836.426 1.71757
839.291 1.63002
842.155 0.757433
845.02 0.411258
847.884 0.342049
850.749 0.372839
853.613 0.379416
856.478 0.412811
859.342 0.431664
862.207 0.438681
865.071 0.462249
867.935 0.494029
870.8 0.475022
873.664 0.502582
876.529 0.527955
879.393 0.520523
882.258 0.53253
885.122 0.552358
887.987 0.587262
890.851 0.581069
893.716 0.624328
896.58 0.631951
899.445 0.693995
902.309 0.743151
905.174 0.880541
908.038 1.03817
910.903 1.23614
913.767 1.30479
916.632 0.916959
919.496 0.691779
922.36 0.656603
925.225 0.74651
928.089 0.924878
930.954 1.02059
933.818 0.742754
936.683 0.569633
939.547 0.539164
942.412 0.521003
945.276 0.51257
948.141 0.524553
951.005 0.538581
953.87 0.551953
956.734 0.548702
959.599 0.550262
962.463 0.54315
965.328 0.548824
968.192 0.563125
971.057 0.559409
973.921 0.577717
976.785 0.58116
979.65 0.588505
982.514 0.590122
985.379 0.581092
988.243 0.589736
991.108 0.595523
993.972 0.603186
996.837 0.600865
999.701 0.603826
1002.57 0.612074
1005.43 0.613751
1008.29 0.623865
1011.16 0.638083
1014.02 0.650339
1016.89 0.662943
1019.75 0.672441
1022.62 0.669851
1025.48 0.670543
1028.35 0.674926
1031.21 0.701748
1034.07 0.71073
1036.94 0.744841
1039.8 0.78574
1042.67 0.810641
1045.53 0.74055
1048.4 0.683832
1051.26 0.686078
1054.13 0.679174
1056.99 0.689659
1059.86 0.701747
1062.72 0.734064
1065.58 0.755217
1068.45 0.781061
1071.31 0.827556
1074.18 0.912244
1077.04 1.07613
1079.91 1.12446
1082.77 0.882606
1085.64 0.728249
1088.5 0.647515
1091.36 0.619483
1094.23 0.602675
1097.09 0.615822
1099.96 0.648324
1102.82 0.639948
1105.69 0.657734
1108.55 0.66091
1111.42 0.687208
1114.28 0.702848
1117.14 0.694768
1120.01 0.72926
1122.87 0.810957
1125.74 0.785927
1128.6 0.730227
1131.47 0.707655
1134.33 0.688206
1137.2 0.673682
1140.06 0.68086
1142.92 0.685844
1145.79 0.682599
1148.65 0.698535
1151.52 0.719528
1154.38 0.732595
1157.25 0.713272
1160.11 0.720852
1162.98 0.723736
1165.84 0.726767
1168.71 0.730747
1171.57 0.72731
1174.43 0.737684
1177.3 0.748155
1180.16 0.746608
1183.03 0.764281
1185.89 0.748261
1188.76 0.787681
1191.62 0.826892
1194.49 0.864136
1197.35 0.946585
1200.21 1.0416
1203.08 0.915998
1205.94 0.808457
1208.81 0.782461
1211.67 0.768552
1214.54 0.755545
1217.4 0.780341
1220.27 0.81132
1223.13 0.83588
1225.99 0.815181
1228.86 0.833672
1231.72 0.843304
1234.59 0.862001
1237.45 0.877689
1240.32 0.88682
1243.18 0.884767
1246.05 0.903573
1248.91 0.916665
1251.78 0.900544
1254.64 0.896072
1257.5 0.8973
1260.37 0.895375
1263.23 0.929533
1266.1 0.949765
1268.96 0.968949
1271.83 0.984709
1274.69 1.00567
1277.56 1.03991
1280.42 1.10768
1283.28 1.14473
1286.15 1.14963
1289.01 1.13465
1291.88 1.18866
1294.74 1.24068
1297.61 1.3014
1300.47 1.38914
1303.34 1.46484
1306.2 1.52461
1309.06 1.57412
1311.93 1.59139
1314.79 1.47781
1317.66 1.37595
1320.52 1.36816
1323.39 1.4154
1326.25 1.53545
1329.12 1.66577
1331.98 1.78995
1334.84 1.93389
1337.71 2.02609
1340.57 1.9746
1343.44 1.77879
1346.3 1.46339
1349.17 1.31403
1352.03 1.24848
1354.9 1.09635
1357.76 0.776948
1360.62 0.584076
1363.49 0.543747
1366.35 0.588384
1369.22 0.619971
1372.08 0.634389
1374.95 0.680383
1377.81 0.681334
1380.68 0.566283
1383.54 0.512886
1386.41 0.538846
1389.27 0.515423
1392.13 0.507162
1395 0.49093
1397.86 0.508384
1400.73 0.530485
1403.59 0.594359
1406.46 0.634652
1409.32 0.716562
1412.19 0.800308
1415.05 0.892124
1417.91 0.921429
1420.78 0.871931
1423.64 0.794255
1426.51 0.721888
1429.37 0.697839
1432.24 0.727363
1435.1 0.790328
1437.97 0.816344
1440.83 0.860876
1443.69 0.8709
1446.56 0.895479
1449.42 0.877682
1452.29 0.86441
1455.15 0.858167
1458.02 0.794558
1460.88 0.783397
1463.75 0.796346
1466.61 0.802554
1469.47 0.804282
1472.34 0.840969
1475.2 0.843035
1478.07 0.871045
1480.93 0.881123
1483.8 0.93158
1486.66 0.977762
1489.53 1.00838
1492.39 1.04128
1495.26 1.09749
1498.12 1.12275
1500.98 1.17808
1503.85 1.26263
1506.71 1.2907
1509.58 1.35093
1512.44 1.4188
1515.31 1.4761
1518.17 1.54208
1521.04 1.54024
1523.9 1.60174
1526.76 1.70964
1529.63 1.84153
1532.49 1.89782
1535.36 2.08463
1538.22 2.12861
1541.09 1.94375
1543.95 1.75647
1546.82 1.54976
1549.68 1.33719
1552.54 1.16145
1555.41 1.09004
1558.27 0.954992
1561.14 0.772562
1564 0.628759
1566.87 0.498751
1569.73 0.371708
1572.6 0.335019
1575.46 0.289893
1578.33 0.281438
1581.19 0.270759
1584.05 0.278718
1586.92 0.337541
1589.78 0.33895
1592.65 0.39881
1595.51 0.458831
1598.38 0.464156
1601.24 0.379586
1604.11 0.309215
1606.97 0.278778
1609.83 0.283385
1612.7 0.277933
1615.56 0.30227
1618.43 0.295893
1621.29 0.317646
1624.16 0.339949
1627.02 0.394017
1629.89 0.481036
1632.75 0.474715
1635.61 0.326178
1638.48 0.23371
1641.34 0.220666
1644.21 0.231821
1647.07 0.246661
1649.94 0.236182
1652.8 0.246742
1655.67 0.211025
1658.53 0.220176
1661.39 0.217571
1664.26 0.214265
1667.12 0.228023
1669.99 0.246505
1672.85 0.237171
1675.72 0.230794
1678.58 0.22952
1681.45 0.24157
1684.31 0.250828
1687.18 0.238159
1690.04 0.247309
1692.9 0.249386
1695.77 0.260712
1698.63 0.271271
1701.5 0.253481
1704.36 0.241587
1707.23 0.24365
1710.09 0.235219
1712.96 0.240808
1715.82 0.263192
1718.68 0.249017
1721.55 0.240699
1724.41 0.240937
1727.28 0.25401
1730.14 0.249906
1733.01 0.290797
1735.87 0.254609
1738.74 0.249705
1741.6 0.265473
1744.46 0.269024
1747.33 0.259685
1750.19 0.27844
1753.06 0.263125
1755.92 0.259736
1758.79 0.269336
1761.65 0.293108
1764.52 0.275531
1767.38 0.286036
1770.24 0.273601
1773.11 0.268538
1775.97 0.255648
1778.84 0.240198
1781.7 0.261553
1784.57 0.27215
1787.43 0.282282
1790.3 0.26872
1793.16 0.268609
1796.02 0.286631
1798.89 0.284683
1801.75 0.278962
1804.62 0.260928
1807.48 0.276814
1810.35 0.310124
1813.21 0.293325
1816.08 0.288757
1818.94 0.289674
1821.81 0.307887
1824.67 0.291483
1827.53 0.284525
1830.4 0.279874
1833.26 0.260158
1836.13 0.255004
1838.99 0.29536
1841.86 0.260085
1844.72 0.285477
1847.59 0.259883
1850.45 0.243618
1853.31 0.254243
1856.18 0.2615
1859.04 0.25458
1861.91 0.259406
1864.77 0.246952
1867.64 0.248885
1870.5 0.255739
1873.37 0.254692
1876.23 0.237235
1879.09 0.255073
1881.96 0.261483
1884.82 0.262515
1887.69 0.24641
1890.55 0.259403
1893.42 0.238328
1896.28 0.255557
1899.15 0.233837
1902.01 0.248374
1904.87 0.240755
1907.74 0.268047
1910.6 0.262038
1913.47 0.255816
1916.33 0.253555
1919.2 0.271554
1922.06 0.251787
1924.93 0.233852
1927.79 0.220236
1930.66 0.218429
1933.52 0.212279
1936.38 0.2403
1939.25 0.227117
1942.11 0.23478
1944.98 0.238668
1947.84 0.236152
1950.71 0.228763
1953.57 0.248334
1956.44 0.242984
1959.3 0.234823
1962.16 0.19922
1965.03 0.168159
1967.89 0.202248
1970.76 0.226993
1973.62 0.168353
1976.49 0.194382
1979.35 0.188523
1982.22 0.219339
1985.08 0.23126
1987.94 0.244697
1990.81 0.229361
1993.67 0.24086
1996.54 0.233194
1999.4 0.225001
2002.27 0.224026
2005.13 0.210537
2008 0.234974
2010.86 0.197898
2013.72 0.202164
2016.59 0.194174
2019.45 0.206919
2022.32 0.199682
2025.18 0.201599
2028.05 0.229383
2030.91 0.223198
2033.78 0.218758
2036.64 0.226686
2039.51 0.233625
2042.37 0.209226
2045.23 0.251219
2048.1 0.206028
2050.96 0.215406
2053.83 0.244862
2056.69 0.270492
2059.56 0.231855
2062.42 0.233552
2065.29 0.236561
2068.15 0.26415
2071.01 0.251185
2073.88 0.255519
2076.74 0.264095
2079.61 0.264949
2082.47 0.274238
2085.34 0.279673
2088.2 0.269458
2091.07 0.285939
2093.93 0.243758
2096.79 0.227012
2099.66 0.241888
2102.52 0.290498
2105.39 0.288952
2108.25 0.272354
2111.12 0.264422
2113.98 0.276034
2116.85 0.276035
2119.71 0.291829
2122.58 0.264123
2125.44 0.247302
2128.3 0.26415
2131.17 0.242191
2134.03 0.251538
2136.9 0.248719
2139.76 0.260403
2142.63 0.24919
2145.49 0.26024
2148.36 0.257411
2151.22 0.24367
2154.08 0.233479
2156.95 0.204387
2159.81 0.184244
2162.68 0.249004
2165.54 0.241288
2168.41 0.23212
2171.27 0.223595
2174.14 0.243571
2177 0.24556
2179.86 0.209546
2182.73 0.247948
2185.59 0.24738
2188.46 0.244621
2191.32 0.21457
2194.19 0.2419
2197.05 0.253401
2199.92 0.273737
2202.78 0.304771
2205.64 0.26854
2208.51 0.265413
2211.37 0.261421
2214.24 0.270179
2217.1 0.272005
2219.97 0.27494
2222.83 0.257714
2225.7 0.249123
2228.56 0.287468
2231.43 0.258069
2234.29 0.256724
2237.15 0.268224
2240.02 0.296181
2242.88 0.289128
2245.75 0.293814
2248.61 0.287823
2251.48 0.302042
2254.34 0.306268
2257.21 0.30389
2260.07 0.298985
2262.93 0.309226
2265.8 0.302952
2268.66 0.327935
2271.53 0.31511
2274.39 0.315226
2277.26 0.316431
2280.12 0.339932
2282.99 0.338599
2285.85 0.316881
2288.71 0.345993
2291.58 0.333713
2294.44 0.360126
2297.31 0.35633
2300.17 0.352627
2303.04 0.365681
2305.9 0.380952
2308.77 0.365008
2311.63 0.381194
2314.49 0.380675
2317.36 0.382357
2320.22 0.405368
2323.09 0.408312
2325.95 0.420368
2328.82 0.402124
2331.68 0.401649
2334.55 0.404838
2337.41 0.419217
2340.28 0.406133
2343.14 0.386527
2346 0.387802
2348.87 0.409068
2351.73 0.412863
2354.6 0.433831
2357.46 0.410666
2360.33 0.416674
2363.19 0.410068
2366.06 0.412486
2368.92 0.409074
2371.78 0.387324
2374.65 0.384237
2377.51 0.378824
2380.38 0.379711
2383.24 0.36753
2386.11 0.380428
2388.97 0.374538
2391.84 0.357927
2394.7 0.381475
2397.56 0.378035
2400.43 0.365672
2403.29 0.35937
2406.16 0.375953
2409.02 0.354165
2411.89 0.366741
2414.75 0.362158
2417.62 0.360425
2420.48 0.365872
2423.34 0.366907
2426.21 0.363262
2429.07 0.364825
2431.94 0.358931
2434.8 0.357015
2437.67 0.364839
2440.53 0.360636
2443.4 0.35434
2446.26 0.353082
2449.12 0.357499
2451.99 0.368101
2454.85 0.382395
2457.72 0.368846
2460.58 0.368701
2463.45 0.363542
2466.31 0.371193
2469.18 0.375284
2472.04 0.378945
2474.91 0.376594
2477.77 0.376829
2480.63 0.367788
2483.5 0.361628
2486.36 0.37849
2489.23 0.354957
2492.09 0.358052
2494.96 0.370057
2497.82 0.364877
2500.69 0.363235
2503.55 0.359249
2506.41 0.354186
2509.28 0.364785
2512.14 0.37033
2515.01 0.360454
2517.87 0.366424
2520.74 0.385651
2523.6 0.361762
2526.47 0.359449
2529.33 0.383316
2532.19 0.354162
2535.06 0.363128
2537.92 0.378965
2540.79 0.385058
2543.65 0.373918
2546.52 0.361323
2549.38 0.372529
2552.25 0.369713
2555.11 0.385756
2557.98 0.404137
2560.84 0.40096
2563.7 0.388925
2566.57 0.367042
2569.43 0.377593
2572.3 0.384222
2575.16 0.377374
2578.03 0.384222
2580.89 0.380239
2583.76 0.379705
2586.62 0.389391
2589.48 0.389457
2592.35 0.399258
2595.21 0.398663
2598.08 0.409782
2600.94 0.384868
2603.81 0.389272
2606.67 0.388165
2609.54 0.398889
2612.4 0.411873
2615.26 0.399425
2618.13 0.402815
2620.99 0.400229
2623.86 0.413444
2626.72 0.405086
2629.59 0.409622
2632.45 0.413104
2635.32 0.415702
2638.18 0.429176
2641.04 0.408007
2643.91 0.407705
2646.77 0.412186
2649.64 0.412017
2652.5 0.41282
2655.37 0.426308
2658.23 0.433603
2661.1 0.433272
2663.96 0.436476
2666.82 0.450939
2669.69 0.43611
2672.55 0.443206
2675.42 0.442361
2678.28 0.428625
2681.15 0.426679
2684.01 0.429907
2686.88 0.442628
2689.74 0.426302
2692.61 0.434383
2695.47 0.435659
2698.33 0.442055
2701.2 0.440726
2704.06 0.437594
2706.93 0.427956
2709.79 0.434101
2712.66 0.438001
2715.52 0.437455
2718.39 0.434928
2721.25 0.442185
2724.11 0.447837
2726.98 0.44103
2729.84 0.431176
2732.71 0.435439
2735.57 0.437313
2738.44 0.437601
2741.3 0.447633
2744.17 0.437364
2747.03 0.435937
2749.89 0.431863
2752.76 0.45148
2755.62 0.44536
2758.49 0.43005
2761.35 0.423207
2764.22 0.413579
2767.08 0.419905
2769.95 0.425023
2772.81 0.429183
2775.68 0.435766
2778.54 0.441924
2781.4 0.441455
2784.27 0.436886
2787.13 0.433882
2790 0.428753
2792.86 0.431081
2795.73 0.435615
2798.59 0.437855
2801.46 0.442393
2804.32 0.444091
2807.18 0.435257
2810.05 0.436264
2812.91 0.4384
2815.78 0.430209
2818.64 0.452842
2821.51 0.465608
2824.37 0.457982
2827.24 0.450399
2830.1 0.440072
2832.96 0.444524
2835.83 0.442885
2838.69 0.454527
2841.56 0.448369
2844.42 0.45199
2847.29 0.455523
2850.15 0.454417
2853.02 0.454851
2855.88 0.460215
2858.74 0.457931
2861.61 0.470575
2864.47 0.47707
2867.34 0.48099
2870.2 0.466187
2873.07 0.494319
2875.93 0.513549
2878.8 0.505942
2881.66 0.485471
2884.53 0.479376
2887.39 0.48861
2890.25 0.478259
2893.12 0.467911
2895.98 0.467138
2898.85 0.471252
2901.71 0.463185
2904.58 0.475045
2907.44 0.474581
2910.31 0.459464
2913.17 0.454737
2916.03 0.444332
2918.9 0.443968
2921.76 0.446019
2924.63 0.443825
2927.49 0.435341
2930.36 0.429653
2933.22 0.438921
2936.09 0.454784
2938.95 0.434805
2941.81 0.427782
2944.68 0.429832
2947.54 0.435003
2950.41 0.431797
2953.27 0.444673
2956.14 0.42356
2959 0.412246
2961.87 0.420773
2964.73 0.451924
2967.59 0.43453
2970.46 0.426441
2973.32 0.414045
2976.19 0.433178
2979.05 0.446604
2981.92 0.43837
2984.78 0.434153
2987.65 0.422254
2990.51 0.425474
2993.38 0.426813
2996.24 0.420419
2999.1 0.433809
3001.97 0.437869
3004.83 0.431911
3007.7 0.448416
3010.56 0.441778
3013.43 0.460975
3016.29 0.467547
3019.16 0.436087
3022.02 0.460776
3024.88 0.464892
3027.75 0.455145
3030.61 0.450011
3033.48 0.449485
3036.34 0.446026
3039.21 0.450135
3042.07 0.462067
3044.94 0.440952
3047.8 0.457706
3050.66 0.476189
3053.53 0.484026
3056.39 0.4983
3059.26 0.486915
3062.12 0.473651
3064.99 0.499785
3067.85 0.499904
3070.72 0.484632
3073.58 0.495289
3076.44 0.510816
3079.31 0.530301
3082.17 0.549232
3085.04 0.56579
3087.9 0.573903
3090.77 0.580105
3093.63 0.634125
3096.5 0.662262
3099.36 0.679067
3102.23 0.713813
3105.09 0.681501
3107.95 0.597949
3110.82 0.515398
3113.68 0.45396
3116.55 0.429387
3119.41 0.396844
3122.28 0.39614
3125.14 0.388896
3128.01 0.399979
3130.87 0.402223
3133.73 0.426439
3136.6 0.426417
3139.46 0.412684
3142.33 0.41992
3145.19 0.409658
3148.06 0.401198
3150.92 0.417668
3153.79 0.401826
3156.65 0.408796
3159.51 0.432377
3162.38 0.426084
3165.24 0.417299
3168.11 0.390273
3170.97 0.415618
3173.84 0.418767
3176.7 0.416152
3179.57 0.414935
3182.43 0.428548
3185.29 0.441216
3188.16 0.431868
3191.02 0.438846
3193.89 0.411881
3196.75 0.396297
3199.62 0.413814
3202.48 0.412995
3205.35 0.408613
3208.21 0.426936
3211.07 0.42643
3213.94 0.408515
3216.8 0.427349
3219.67 0.439851
3222.53 0.43046
3225.4 0.421997
3228.26 0.461068
3231.13 0.451749
3233.99 0.451002
3236.86 0.432368
3239.72 0.424976
3242.58 0.401389
3245.45 0.416903
3248.31 0.41565
3251.18 0.418391
3254.04 0.411553
3256.91 0.417634
3259.77 0.417163
3262.64 0.4048
3265.5 0.422105
3268.36 0.435229
3271.23 0.44712
3274.09 0.431208
3276.96 0.413654
3279.82 0.429754
