scanname 扫描259
timestamp 1/1/1970 00:35
scancount 1
laserwavenum 850.5
measurementstate Unknown
scanmode Identification
snr 4.97341 4.97341 4.97341
replacelist 0
peaks 13
717.308 0.139935 0 1.81513 0.000562202
796.422 0.0986634 0 3.45064 0.000354201
827.865 0.110401 0 6.46362 0.000469617
846.887 0.0992109 0 7.95867 0.000490293
878.549 0.105988 0 10.348 0.000501904
1144.04 0.0734169 0 1.99958 0.000113778
1296.94 0.139938 0 4.82574 0.000228799
1342.43 0.167664 0 5.50763 0.000280275
1360.89 0.130451 0 6.90368 0.000319286
1392.64 0.0605505 0 3.221 0.00015181
1416.65 0.0761844 0 3.76543 0.000176944
1533.7 0.199169 0 3.05478 0.00021583
3099.4 0.0638538 0 1.04744 9.73031e-05
finalresult No match found 1A1682	0.00433457
spectrum 2048
0 -13.262
2.86447 -13.6942
5.72895 -10.7486
8.59342 -10.8832
11.4579 -7.6828
14.3224 -4.72981
17.1868 -6.87897
20.0513 -6.88071
22.9158 -2.31224
25.7803 -2.47819
28.6447 -6.31243
31.5092 -3.75753
34.3737 -0.397152
37.2382 -4.11617
40.1026 -4.077
42.9671 -1.23485
45.8316 -2.91156
48.696 -5.22097
51.5605 -5.40534
54.425 -2.55952
57.2895 -3.1149
60.1539 -3.48692
63.0184 -3.68053
65.8829 -4.38423
68.7474 -6.26381
71.6118 -5.29665
74.4763 -2.81192
77.3408 -3.76004
80.2053 -5.23176
83.0697 -3.91215
85.9342 -5.04725
88.7987 -6.93641
91.6632 -5.88584
94.5276 -3.88114
97.3921 -4.22085
100.257 -3.96601
103.121 -4.1474
105.986 -2.35275
108.85 -3.15196
111.714 -6.08145
114.579 -5.02822
117.443 -5.35769
120.308 -5.74973
123.172 -4.98059
126.037 -4.49074
128.901 -3.46603
131.766 -3.68996
134.63 -3.11626
137.495 -2.84696
140.359 -4.95387
143.224 -8.01152
146.088 -5.82077
148.953 -5.77292
151.817 -5.50318
154.682 -5.73583
157.546 -2.88135
160.411 -3.77307
163.275 -5.13091
166.139 -3.4954
169.004 -1.05059
171.868 -1.33605
174.733 -3.38803
177.597 -4.02721
180.462 -3.92043
183.326 -4.22592
186.191 -3.905
189.055 -2.90698
191.92 -3.73944
194.784 -3.30049
197.649 -4.4914
200.513 -3.4265
203.378 -3.30941
206.242 -3.11704
209.107 -4.45417
211.971 -5.3046
214.836 -3.77726
217.7 -1.90005
220.564 -3.96021
223.429 -7.11889
226.293 -4.96012
229.158 -1.32781
232.022 -2.82492
234.887 -5.32245
237.751 -5.33327
240.616 -3.56559
243.48 -5.37636
246.345 -5.2764
249.209 -3.18488
252.074 -3.68411
254.938 -4.039
257.803 -4.74982
260.667 -5.3254
263.532 -6.49174
266.396 -5.19638
269.26 -3.10235
272.125 -4.56567
274.989 -5.27844
277.854 -3.45412
280.718 -1.87624
283.583 -3.45522
286.447 -3.96857
289.312 -4.06853
292.176 -5.61878
295.041 -6.37743
297.905 -4.43061
300.77 -3.16646
303.634 -4.10075
306.499 -6.12809
309.363 -6.17197
312.228 -3.69201
315.092 -3.2806
317.957 -4.36115
320.821 -3.54228
323.686 -4.60936
326.55 -6.43735
329.414 -5.05036
332.279 -4.06038
335.143 -4.72515
338.008 -5.08395
340.872 -4.26401
343.737 -5.0816
346.601 -4.04985
349.466 -3.92283
352.33 -4.02657
355.195 -5.07834
358.059 -4.91694
360.924 -2.39247
363.788 -1.18302
366.653 -3.06836
369.517 -5.16534
372.382 -4.61032
375.246 -5.18366
378.111 -6.22051
380.975 -2.83746
383.839 -3.04101
386.704 -6.67182
389.568 -4.68745
392.433 -0.704759
395.297 -2.0185
398.162 -3.23984
401.026 -2.70961
403.891 -3.55571
406.755 -5.43014
409.62 -4.88066
412.484 -6.64207
415.349 -4.01483
418.213 -3.58467
421.078 -4.34781
423.942 -2.71218
426.807 -4.27351
429.671 -5.08194
432.535 -3.5222
435.4 -1.31353
438.264 -2.87547
441.129 -5.07259
443.993 -1.61496
446.858 -2.53646
449.722 -6.84298
452.587 -6.28599
455.451 -5.1338
458.316 -6.05291
461.18 -5.02042
464.045 -4.86246
466.909 -3.3002
469.774 -4.06489
472.638 -2.73321
475.503 4.04617
478.367 -3.37734
481.232 -6.05152
484.096 -4.60877
486.961 -0.413753
489.825 -3.76176
492.689 -3.50401
495.554 -1.31555
498.418 0.156422
501.283 -3.37767
504.147 -4.29597
507.012 -0.759003
509.876 -5.11098
512.741 -5.68084
515.605 -3.61481
518.47 -2.64042
521.334 -3.70976
524.199 -2.97329
527.063 -2.5498
529.928 -3.20252
532.792 -4.18181
535.657 -3.03794
538.521 -1.32369
541.385 -2.5581
544.25 -5.07986
547.115 -3.53225
549.979 -0.30354
552.843 -3.91362
555.708 -5.53383
558.572 -3.55938
561.437 -3.24766
564.301 -4.09209
567.166 -2.9522
570.03 0.228494
572.895 -3.21674
575.759 -3.99703
578.624 -1.66216
581.488 0.28041
584.353 -2.6598
587.217 -3.33584
590.082 -0.941278
592.946 5.04737
595.81 -2.03547
598.675 -2.2543
601.539 4.08524
604.404 0.0258705
607.268 -1.81225
610.133 -1.0756
612.997 4.31035
615.862 -0.0811466
618.726 -0.535137
621.591 2.66148
624.455 1.20882
627.32 -0.534485
630.184 0.0999886
633.049 1.26759
635.913 0.492242
638.778 -0.288683
641.642 0.497046
644.507 0.907121
647.371 0.279685
650.235 0.119342
653.1 0.963206
655.964 1.12692
658.829 0.280336
661.693 0.635721
664.558 1.02311
667.422 0.351355
670.287 0.201436
673.151 0.857423
676.016 0.87816
678.88 0.486703
681.745 0.469018
684.609 0.847946
687.474 0.598229
690.338 0.467921
693.203 0.785608
696.067 0.830717
698.932 0.666755
701.796 0.529134
704.66 0.958975
707.525 1.01452
710.389 0.89699
713.254 1.13119
716.118 1.67496
718.983 1.52064
721.847 1.13027
724.712 1.03151
727.576 0.842622
730.441 0.428711
733.305 0.374952
736.17 0.577864
739.034 0.453158
741.899 0.381906
744.763 0.489513
747.628 0.610982
750.492 0.459566
753.357 0.437791
756.221 0.615153
759.086 0.650751
761.95 0.49892
764.814 0.568457
767.679 0.746537
770.543 0.717258
773.408 0.681452
776.272 0.692756
779.137 0.664083
782.001 0.578881
784.866 0.606163
787.73 0.743489
790.595 0.74377
793.459 0.712999
796.324 0.994545
799.188 1.24117
802.053 1.0476
804.917 0.513059
807.782 0.524983
810.646 0.548352
813.51 0.495346
816.375 0.59352
819.239 0.719168
822.104 0.787722
824.968 0.885326
827.833 1.19319
830.697 1.50456
833.562 0.852722
836.426 0.474784
839.291 0.602667
842.155 0.792945
845.02 1.09335
847.884 1.37169
850.749 0.842556
853.613 0.447215
856.478 0.379408
859.342 0.455633
862.207 0.503906
865.071 0.481162
867.935 0.565433
870.8 0.721999
873.664 0.809429
876.529 0.956071
879.393 1.22629
882.258 1.17385
885.122 0.735594
887.987 0.448662
890.851 0.387288
893.716 0.334702
896.58 0.279323
899.445 0.303128
902.309 0.33977
905.174 0.309165
908.038 0.313802
910.903 0.389956
913.767 0.400266
916.632 0.3535
919.496 0.354657
922.36 0.415095
925.225 0.392131
928.089 0.374854
930.954 0.395346
933.818 0.419984
936.683 0.385577
939.547 0.403658
942.412 0.437307
945.276 0.439207
948.141 0.418829
951.005 0.450776
953.87 0.495189
956.734 0.495441
959.599 0.496096
962.463 0.485741
965.328 0.46934
968.192 0.449602
971.057 0.454477
973.921 0.476313
976.785 0.45746
979.65 0.450029
982.514 0.478241
985.379 0.499799
988.243 0.473573
991.108 0.475094
993.972 0.501668
996.837 0.505462
999.701 0.485209
1002.57 0.497189
1005.43 0.518203
1008.29 0.505015
1011.16 0.498607
1014.02 0.517702
1016.89 0.535
1019.75 0.51906
1022.62 0.520751
1025.48 0.561109
1028.35 0.565096
1031.21 0.549034
1034.07 0.585042
1036.94 0.607817
1039.8 0.587591
1042.67 0.585586
1045.53 0.619233
1048.4 0.560452
1051.26 0.524016
1054.13 0.534828
1056.99 0.563465
1059.86 0.545663
1062.72 0.522308
1065.58 0.55879
1068.45 0.568248
1071.31 0.535468
1074.18 0.540272
1077.04 0.58018
1079.91 0.56492
1082.77 0.546323
1085.64 0.572515
1088.5 0.590107
1091.36 0.562283
1094.23 0.546601
1097.09 0.60283
1099.96 0.593664
1102.82 0.563606
1105.69 0.581555
1108.55 0.606339
1111.42 0.580612
1114.28 0.569807
1117.14 0.615247
1120.01 0.630254
1122.87 0.580867
1125.74 0.606474
1128.6 0.679378
1131.47 0.651851
1134.33 0.621944
1137.2 0.655114
1140.06 0.733915
1142.92 0.764139
1145.79 0.762461
1148.65 0.683454
1151.52 0.637111
1154.38 0.580362
1157.25 0.574952
1160.11 0.625548
1162.98 0.612768
1165.84 0.583067
1168.71 0.631261
1171.57 0.677293
1174.43 0.63206
1177.3 0.62618
1180.16 0.699668
1183.03 0.672052
1185.89 0.628875
1188.76 0.681667
1191.62 0.726511
1194.49 0.719723
1197.35 0.748571
1200.21 0.821688
1203.08 0.685942
1205.94 0.609936
1208.81 0.662908
1211.67 0.704921
1214.54 0.676763
1217.4 0.678001
1220.27 0.722167
1223.13 0.74965
1225.99 0.676455
1228.86 0.656568
1231.72 0.71605
1234.59 0.714794
1237.45 0.688506
1240.32 0.744334
1243.18 0.780918
1246.05 0.754911
1248.91 0.74802
1251.78 0.814205
1254.64 0.814901
1257.5 0.788817
1260.37 0.832926
1263.23 0.914408
1266.1 0.915582
1268.96 0.913514
1271.83 0.960255
1274.69 1.00502
1277.56 1.01595
1280.42 1.05183
1283.28 1.139
1286.15 1.18887
1289.01 1.20156
1291.88 1.28263
1294.74 1.40076
1297.61 1.4402
1300.47 1.36758
1303.34 1.33326
1306.2 1.19141
1309.06 1.04747
1311.93 1.02027
1314.79 1.10071
1317.66 1.11646
1320.52 1.11597
1323.39 1.19726
1326.25 1.28422
1329.12 1.30443
1331.98 1.3856
1334.84 1.50981
1337.71 1.59686
1340.57 1.63493
1343.44 1.68106
1346.3 1.69538
1349.17 1.54424
1352.03 1.38031
1354.9 1.24975
1357.76 1.17709
1360.62 1.20146
1363.49 1.36872
1366.35 1.39775
1369.22 1.08786
1372.08 0.756506
1374.95 0.565675
1377.81 0.495441
1380.68 0.410511
1383.54 0.411096
1386.41 0.540656
1389.27 0.663866
1392.13 0.652164
1395 0.553126
1397.86 0.522198
1400.73 0.479326
1403.59 0.462371
1406.46 0.561929
1409.32 0.664677
1412.19 0.716158
1415.05 0.807498
1417.91 0.796872
1420.78 0.672966
1423.64 0.619784
1426.51 0.638525
1429.37 0.644543
1432.24 0.61563
1435.1 0.614697
1437.97 0.672855
1440.83 0.696335
1443.69 0.638929
1446.56 0.644042
1449.42 0.705727
1452.29 0.724434
1455.15 0.721403
1458.02 0.804286
1460.88 0.89113
1463.75 0.811867
1466.61 0.790936
1469.47 0.887354
1472.34 0.860641
1475.2 0.860663
1478.07 0.93811
1480.93 0.99713
1483.8 1.00375
1486.66 1.02113
1489.53 1.09921
1492.39 1.16973
1495.26 1.11581
1498.12 1.17651
1500.98 1.3097
1503.85 1.36108
1506.71 1.28628
1509.58 1.457
1512.44 1.56302
1515.31 1.60046
1518.17 1.66912
1521.04 1.75372
1523.9 1.85308
1526.76 1.86608
1529.63 2.00736
1532.49 1.96581
1535.36 1.97356
1538.22 1.93964
1541.09 1.86822
1543.95 1.79909
1546.82 1.60118
1549.68 1.43841
1552.54 1.31017
1555.41 1.10195
1558.27 0.747226
1561.14 0.673172
1564 0.60716
1566.87 0.478852
1569.73 0.341002
1572.6 0.344897
1575.46 0.288064
1578.33 0.247737
1581.19 0.286403
1584.05 0.303372
1586.92 0.2584
1589.78 0.221213
1592.65 0.246416
1595.51 0.248212
1598.38 0.208427
1601.24 0.20455
1604.11 0.23576
1606.97 0.254862
1609.83 0.22454
1612.7 0.251384
1615.56 0.25959
1618.43 0.241516
1621.29 0.233727
1624.16 0.240055
1627.02 0.20401
1629.89 0.177106
1632.75 0.207639
1635.61 0.227563
1638.48 0.197144
1641.34 0.163824
1644.21 0.209134
1647.07 0.232029
1649.94 0.200049
1652.8 0.16261
1655.67 0.235805
1658.53 0.214753
1661.39 0.180816
1664.26 0.229559
1667.12 0.252021
1669.99 0.186339
1672.85 0.188843
1675.72 0.236518
1678.58 0.235682
1681.45 0.212335
1684.31 0.202183
1687.18 0.251352
1690.04 0.223192
1692.9 0.221666
1695.77 0.254594
1698.63 0.260461
1701.5 0.203725
1704.36 0.209641
1707.23 0.249644
1710.09 0.248732
1712.96 0.205079
1715.82 0.20684
1718.68 0.232376
1721.55 0.22828
1724.41 0.225831
1727.28 0.254164
1730.14 0.259512
1733.01 0.205057
1735.87 0.226379
1738.74 0.244949
1741.6 0.226418
1744.46 0.207588
1747.33 0.25122
1750.19 0.253811
1753.06 0.222586
1755.92 0.229661
1758.79 0.257809
1761.65 0.242939
1764.52 0.202897
1767.38 0.236597
1770.24 0.244402
1773.11 0.226915
1775.97 0.224244
1778.84 0.253247
1781.7 0.2555
1784.57 0.231612
1787.43 0.233517
1790.3 0.252881
1793.16 0.244103
1796.02 0.234784
1798.89 0.24529
1801.75 0.285056
1804.62 0.249671
1807.48 0.250551
1810.35 0.254825
1813.21 0.256487
1816.08 0.221755
1818.94 0.235502
1821.81 0.268398
1824.67 0.227136
1827.53 0.225241
1830.4 0.257888
1833.26 0.255949
1836.13 0.215619
1838.99 0.22886
1841.86 0.250094
1844.72 0.213102
1847.59 0.211836
1850.45 0.252234
1853.31 0.284525
1856.18 0.240496
1859.04 0.20657
1861.91 0.250647
1864.77 0.238684
1867.64 0.200645
1870.5 0.219341
1873.37 0.254086
1876.23 0.233105
1879.09 0.196584
1881.96 0.24881
1884.82 0.2624
1887.69 0.213853
1890.55 0.210801
1893.42 0.24008
1896.28 0.238358
1899.15 0.20068
1902.01 0.231033
1904.87 0.266265
1907.74 0.222327
1910.6 0.221919
1913.47 0.269136
1916.33 0.266276
1919.2 0.237688
1922.06 0.210559
1924.93 0.250319
1927.79 0.236443
1930.66 0.170623
1933.52 0.22791
1936.38 0.246461
1939.25 0.181273
1942.11 0.154252
1944.98 0.186984
1947.84 0.194324
1950.71 0.131995
1953.57 0.170109
1956.44 0.241095
1959.3 0.212251
1962.16 0.163611
1965.03 0.208649
1967.89 0.265061
1970.76 0.179353
1973.62 0.159738
1976.49 0.200166
1979.35 0.168511
1982.22 0.118737
1985.08 0.179175
1987.94 0.22468
1990.81 0.15002
1993.67 0.144913
1996.54 0.239011
1999.4 0.189919
2002.27 0.13058
2005.13 0.156662
2008 0.209841
2010.86 0.168793
2013.72 0.119873
2016.59 0.163622
2019.45 0.152691
2022.32 0.126377
2025.18 0.146771
2028.05 0.270632
2030.91 0.188384
2033.78 0.112199
2036.64 0.182929
2039.51 0.237907
2042.37 0.200759
2045.23 0.163373
2048.1 0.242227
2050.96 0.247651
2053.83 0.159212
2056.69 0.197331
2059.56 0.270723
2062.42 0.224723
2065.29 0.176402
2068.15 0.235488
2071.01 0.231051
2073.88 0.201139
2076.74 0.217166
2079.61 0.265713
2082.47 0.269563
2085.34 0.241684
2088.2 0.270016
2091.07 0.270433
2093.93 0.215422
2096.79 0.222824
2099.66 0.264309
2102.52 0.278605
2105.39 0.255229
2108.25 0.224848
2111.12 0.2713
2113.98 0.245889
2116.85 0.234231
2119.71 0.279723
2122.58 0.298991
2125.44 0.212252
2128.3 0.223015
2131.17 0.268517
2134.03 0.241828
2136.9 0.162008
2139.76 0.230131
2142.63 0.274645
2145.49 0.212012
2148.36 0.187067
2151.22 0.236728
2154.08 0.207057
2156.95 0.146866
2159.81 0.189513
2162.68 0.218942
2165.54 0.214974
2168.41 0.172036
2171.27 0.226474
2174.14 0.258542
2177 0.196087
2179.86 0.208447
2182.73 0.248442
2185.59 0.221033
2188.46 0.198851
2191.32 0.260815
2194.19 0.297801
2197.05 0.219387
2199.92 0.197066
2202.78 0.253981
2205.64 0.289508
2208.51 0.202903
2211.37 0.228092
2214.24 0.294607
2217.1 0.276483
2219.97 0.23344
2222.83 0.269327
2225.7 0.287108
2228.56 0.252599
2231.43 0.235701
2234.29 0.30035
2237.15 0.311474
2240.02 0.249639
2242.88 0.284185
2245.75 0.317956
2248.61 0.299993
2251.48 0.258313
2254.34 0.301158
2257.21 0.321343
2260.07 0.314508
2262.93 0.31013
2265.8 0.350194
2268.66 0.332139
2271.53 0.297752
2274.39 0.329201
2277.26 0.366924
2280.12 0.32005
2282.99 0.317713
2285.85 0.364846
2288.71 0.355164
2291.58 0.332167
2294.44 0.352104
2297.31 0.392709
2300.17 0.356658
2303.04 0.349987
2305.9 0.374584
2308.77 0.395585
2311.63 0.353423
2314.49 0.354714
2317.36 0.38385
2320.22 0.39245
2323.09 0.369966
2325.95 0.400018
2328.82 0.401612
2331.68 0.37107
2334.55 0.366202
2337.41 0.384793
2340.28 0.370972
2343.14 0.361576
2346 0.399451
2348.87 0.412142
2351.73 0.399186
2354.6 0.387849
2357.46 0.384572
2360.33 0.396032
2363.19 0.363381
2366.06 0.359521
2368.92 0.372631
2371.78 0.371767
2374.65 0.360637
2377.51 0.385288
2380.38 0.405614
2383.24 0.359848
2386.11 0.369645
2388.97 0.378302
2391.84 0.358017
2394.7 0.343209
2397.56 0.358681
2400.43 0.379814
2403.29 0.379623
2406.16 0.367007
2409.02 0.385263
2411.89 0.390235
2414.75 0.36844
2417.62 0.356057
2420.48 0.417412
2423.34 0.391835
2426.21 0.366608
2429.07 0.363174
2431.94 0.406927
2434.8 0.378923
2437.67 0.37369
2440.53 0.379686
2443.4 0.390851
2446.26 0.334169
2449.12 0.354513
2451.99 0.38999
2454.85 0.366559
2457.72 0.353
2460.58 0.381041
2463.45 0.405165
2466.31 0.368917
2469.18 0.366716
2472.04 0.401954
2474.91 0.392582
2477.77 0.355471
2480.63 0.368732
2483.5 0.394852
2486.36 0.382927
2489.23 0.375158
2492.09 0.40368
2494.96 0.401563
2497.82 0.35987
2500.69 0.367381
2503.55 0.386366
2506.41 0.38896
2509.28 0.381088
2512.14 0.390284
2515.01 0.404676
2517.87 0.373763
2520.74 0.385323
2523.6 0.386395
2526.47 0.39418
2529.33 0.361487
2532.19 0.378338
2535.06 0.410218
2537.92 0.393161
2540.79 0.368012
2543.65 0.393369
2546.52 0.416161
2549.38 0.373221
2552.25 0.378599
2555.11 0.401505
2557.98 0.389163
2560.84 0.394674
2563.7 0.407834
2566.57 0.407816
2569.43 0.387765
2572.3 0.359612
2575.16 0.418127
2578.03 0.431984
2580.89 0.376728
2583.76 0.404356
2586.62 0.418834
2589.48 0.403883
2592.35 0.388437
2595.21 0.410254
2598.08 0.429962
2600.94 0.393072
2603.81 0.403977
2606.67 0.435814
2609.54 0.415476
2612.4 0.387317
2615.26 0.426349
2618.13 0.446163
2620.99 0.41628
2623.86 0.414661
2626.72 0.433753
2629.59 0.440462
2632.45 0.422892
2635.32 0.406179
2638.18 0.444939
2641.04 0.425688
2643.91 0.413813
2646.77 0.437203
2649.64 0.455911
2652.5 0.437025
2655.37 0.442493
2658.23 0.450974
2661.1 0.440081
2663.96 0.430259
2666.82 0.44386
2669.69 0.468237
2672.55 0.451343
2675.42 0.452157
2678.28 0.472829
2681.15 0.455355
2684.01 0.42818
2686.88 0.44475
2689.74 0.466475
2692.61 0.460874
2695.47 0.446712
2698.33 0.45251
2701.2 0.464952
2704.06 0.454556
2706.93 0.450637
2709.79 0.46913
2712.66 0.474233
2715.52 0.446918
2718.39 0.448252
2721.25 0.471561
2724.11 0.470337
2726.98 0.451847
2729.84 0.472394
2732.71 0.476549
2735.57 0.441172
2738.44 0.436895
2741.3 0.453341
2744.17 0.461918
2747.03 0.448385
2749.89 0.460282
2752.76 0.479196
2755.62 0.44901
2758.49 0.430773
2761.35 0.45914
2764.22 0.457303
2767.08 0.426806
2769.95 0.442813
2772.81 0.458898
2775.68 0.455717
2778.54 0.444157
2781.4 0.471879
2784.27 0.4702
2787.13 0.425734
2790 0.440395
2792.86 0.476136
2795.73 0.463366
2798.59 0.438165
2801.46 0.458742
2804.32 0.471212
2807.18 0.451746
2810.05 0.451045
2812.91 0.465722
2815.78 0.470807
2818.64 0.444495
2821.51 0.462589
2824.37 0.489262
2827.24 0.481961
2830.1 0.458553
2832.96 0.462811
2835.83 0.479191
2838.69 0.454815
2841.56 0.471605
2844.42 0.491489
2847.29 0.49587
2850.15 0.455236
2853.02 0.4564
2855.88 0.481129
2858.74 0.475872
2861.61 0.478334
2864.47 0.503758
2867.34 0.51002
2870.2 0.494906
2873.07 0.516716
2875.93 0.530078
2878.8 0.515485
2881.66 0.493403
2884.53 0.5183
2887.39 0.528124
2890.25 0.514804
2893.12 0.521356
2895.98 0.523452
2898.85 0.530159
2901.71 0.502601
2904.58 0.505054
2907.44 0.517256
2910.31 0.495443
2913.17 0.493197
2916.03 0.488988
2918.9 0.497765
2921.76 0.462938
2924.63 0.466337
2927.49 0.508087
2930.36 0.502974
2933.22 0.469578
2936.09 0.469715
2938.95 0.491631
2941.81 0.480923
2944.68 0.476311
2947.54 0.509036
2950.41 0.497794
2953.27 0.467184
2956.14 0.474958
2959 0.498086
2961.87 0.47928
2964.73 0.456358
2967.59 0.485035
2970.46 0.484429
2973.32 0.453268
2976.19 0.449082
2979.05 0.476285
2981.92 0.46664
2984.78 0.453256
2987.65 0.487004
2990.51 0.48842
2993.38 0.471798
2996.24 0.466541
2999.1 0.482538
3001.97 0.490145
3004.83 0.469824
3007.7 0.457386
3010.56 0.480847
3013.43 0.461712
3016.29 0.470285
3019.16 0.492292
3022.02 0.470922
3024.88 0.458404
3027.75 0.475787
3030.61 0.498699
3033.48 0.487672
3036.34 0.470683
3039.21 0.475227
3042.07 0.503502
3044.94 0.496371
3047.8 0.474075
3050.66 0.501495
3053.53 0.492206
3056.39 0.473009
3059.26 0.477335
3062.12 0.508172
3064.99 0.509981
3067.85 0.481244
3070.72 0.520573
3073.58 0.525473
3076.44 0.509985
3079.31 0.501389
3082.17 0.51255
3085.04 0.509464
3087.9 0.50683
3090.77 0.564215
3093.63 0.635029
3096.5 0.607319
3099.36 0.611497
3102.23 0.63887
3105.09 0.644463
3107.95 0.547984
3110.82 0.509434
3113.68 0.477239
3116.55 0.457737
3119.41 0.442497
3122.28 0.46629
3125.14 0.477785
3128.01 0.448505
3130.87 0.439144
3133.73 0.467439
3136.6 0.464143
3139.46 0.426088
3142.33 0.431386
3145.19 0.462947
3148.06 0.458821
3150.92 0.470166
3153.79 0.467264
3156.65 0.479596
3159.51 0.462612
3162.38 0.462454
3165.24 0.485865
3168.11 0.462641
3170.97 0.439489
3173.84 0.446019
3176.7 0.45503
3179.57 0.426809
3182.43 0.428515
3185.29 0.457416
3188.16 0.470269
3191.02 0.45546
3193.89 0.455679
3196.75 0.48815
3199.62 0.466226
3202.48 0.466964
3205.35 0.469223
3208.21 0.465593
3211.07 0.457381
3213.94 0.453654
3216.8 0.481235
3219.67 0.477177
3222.53 0.455155
3225.4 0.477899
3228.26 0.470374
3231.13 0.451765
3233.99 0.428994
3236.86 0.455769
3239.72 0.46386
3242.58 0.452973
3245.45 0.46288
3248.31 0.510877
3251.18 0.484707
3254.04 0.44628
3256.91 0.480194
3259.77 0.497034
3262.64 0.466477
3265.5 0.459186
3268.36 0.501842
3271.23 0.49984
3274.09 0.459464
3276.96 0.450747
3279.82 0.479128
3282.69 0.48066
3285.55 0.441828
3288.42 0.478819
3291.28 0.463582
3294.14 0.428381
3297.01 0.45362
3299.87 0.49241
