scanname 扫描251
timestamp 1/1/1970 00:17
scancount 1
laserwavenum 850.5
measurementstate Unknown
scanmode Identification
snr 8.28753 8.28753 8.28753
replacelist 0
peaks 19
695.498 0.112553 0 1.26808 0.000375503
735.772 0.103849 0 1.33308 0.000230718
752.393 0.116801 0 4.09905 0.000408228
775.471 0.08462 0 2.98775 0.000244903
801.635 0.106386 0 8.73327 0.00047422
829.394 0.0962136 0 6.82338 0.00030886
846.712 0.104845 0 12.2156 0.000452224
907.962 0.092348 0 11.978 0.000305156
942.181 0.0789501 0 10.7753 0.000221714
979.778 0.0569434 0 1.32418 3.26416e-05
1036.68 0.0759513 0 3.69232 6.84501e-05
1157.5 0.0969414 0 7.94055 0.000223931
1191.73 0.0874471 0 2.82458 0.000103282
1342.11 0.2186 0 13.554 0.000417262
1403.14 0.0859356 0 3.23146 0.000100648
1468.61 0.123772 0 6.49812 0.00019739
1537.03 0.234549 0 7.77018 0.000301152
1597.31 0.0746098 0 6.05973 0.000174751
3084.5 0.074745 0 3.69814 0.000141688
finalresult No match found 1A12650	9.13308e-26
spectrum 2048
0 -7.42127
2.86447 -6.93511
5.72895 -5.29484
8.59342 -5.29732
11.4579 -3.61822
14.3224 0.675443
17.1868 -1.50551
20.0513 16.5353
22.9158 0.109711
25.7803 2.60138
28.6447 3.54663
31.5092 4.95521
34.3737 1.04154
37.2382 -0.0522715
40.1026 3.39424
42.9671 5.17301
45.8316 1.45703
48.696 7.0423
51.5605 0.658734
54.425 -0.291871
57.2895 10.2999
60.1539 3.16125
63.0184 4.72689
65.8829 -0.202161
68.7474 -1.09562
71.6118 -0.588107
74.4763 -1.18454
77.3408 -0.992198
80.2053 2.16648
83.0697 0.624757
85.9342 -0.371975
88.7987 2.82161
91.6632 5.73297
94.5276 1.52869
97.3921 2.93043
100.257 3.04006
103.121 3.66222
105.986 1.06825
108.85 4.66086
111.714 0.512002
114.579 -1.22408
117.443 -2.92532
120.308 -0.531188
123.172 0.64461
126.037 2.48626
128.901 0.645493
131.766 1.03199
134.63 0.859894
137.495 -2.20311
140.359 -3.46034
143.224 -2.63664
146.088 -1.31548
148.953 -1.98187
151.817 3.78826
154.682 4.92726
157.546 2.36235
160.411 0.341378
163.275 4.3469
166.139 0.705075
169.004 0.502924
171.868 1.97354
174.733 -1.07455
177.597 0.4726
180.462 2.84988
183.326 -0.635169
186.191 -0.265317
189.055 -0.86485
191.92 -1.55101
194.784 -0.975154
197.649 3.87145
200.513 -1.60364
203.378 -0.95134
206.242 -3.04179
209.107 2.96446
211.971 1.67968
214.836 -0.74607
217.7 -1.35328
220.564 1.20716
223.429 -0.0433362
226.293 0.940151
229.158 7.49474
232.022 2.03064
234.887 4.19677
237.751 -0.500939
240.616 0.76234
243.48 6.31031
246.345 2.49884
249.209 1.96391
252.074 1.31086
254.938 -0.914645
257.803 -1.41454
260.667 0.614603
263.532 2.00826
266.396 3.37946
269.26 -0.753852
272.125 -0.494215
274.989 1.84993
277.854 3.61066
280.718 2.04344
283.583 1.89462
286.447 2.44227
289.312 0.101721
292.176 -1.62146
295.041 -0.850663
297.905 0.872407
300.77 -0.444988
303.634 3.96784
306.499 0.687432
309.363 1.18287
312.228 4.78922
315.092 1.53447
317.957 7.03886
320.821 -0.597386
323.686 0.627169
326.55 -2.18449
329.414 -1.80431
332.279 1.66546
335.143 2.85027
338.008 0.724732
340.872 4.73473
343.737 1.7236
346.601 4.91427
349.466 0.709748
352.33 -0.441648
355.195 -0.122561
358.059 -0.0797027
360.924 1.86883
363.788 0.297076
366.653 0.922544
369.517 -1.38368
372.382 -0.38345
375.246 -1.19075
378.111 2.35579
380.975 12.2601
383.839 4.11334
386.704 -0.612756
389.568 0.484123
392.433 2.15397
395.297 3.40425
398.162 -0.962639
401.026 -1.39935
403.891 2.34385
406.755 9.92097
409.62 4.75009
412.484 3.43045
415.349 2.11157
418.213 0.275464
421.078 1.37395
423.942 -0.651584
426.807 0.770674
429.671 -1.72901
432.535 2.14575
435.4 3.01103
438.264 4.15935
441.129 1.00378
443.993 5.83707
446.858 1.36305
449.722 1.94629
452.587 12.5967
455.451 5.6614
458.316 0.596301
461.18 2.13273
464.045 3.6646
466.909 4.18563
469.774 -0.359577
472.638 -0.694359
475.503 1.48312
478.367 -0.0567701
481.232 0.806095
484.096 0.784857
486.961 4.72163
489.825 4.18048
492.689 7.40657
495.554 -0.65983
498.418 0.0252911
501.283 3.73926
504.147 4.02936
507.012 3.70772
509.876 0.960284
512.741 2.62811
515.605 5.46519
518.47 0.713739
521.334 2.95386
524.199 -1.22756
527.063 -1.53524
529.928 1.71035
532.792 2.67939
535.657 -1.47632
538.521 1.39146
541.385 2.56572
544.25 4.41689
547.115 2.1524
549.979 3.02217
552.843 1.57236
555.708 -0.665084
558.572 -2.79666
561.437 -2.27431
564.301 0.74065
567.166 4.53405
570.03 0.718599
572.895 1.72961
575.759 -2.73109
578.624 1.70209
581.488 6.69403
584.353 0.0495923
587.217 2.93452
590.082 0.547942
592.946 0.723722
595.81 0.693223
598.675 -1.25183
601.539 0.652593
604.404 -0.325138
607.268 0.544783
610.133 0.334552
612.997 -0.243349
615.862 0.333194
618.726 0.594425
621.591 0.295376
624.455 0.300859
627.32 0.050812
630.184 0.972964
633.049 0.667669
635.913 0.712809
638.778 1.03794
641.642 1.01772
644.507 1.05338
647.371 0.942885
650.235 0.81799
653.1 0.564192
655.964 0.348965
658.829 0.418366
661.693 0.707171
664.558 0.701155
667.422 0.355141
670.287 0.653368
673.151 0.669018
676.016 0.781608
678.88 0.773331
681.745 0.838262
684.609 0.724676
687.474 0.841684
690.338 0.915746
693.203 1.0842
696.067 1.32078
698.932 1.23804
701.796 0.74475
704.66 0.694121
707.525 0.697806
710.389 0.608012
713.254 0.722705
716.118 0.634812
718.983 0.597025
721.847 0.676394
724.712 0.755351
727.576 0.755574
730.441 0.857746
733.305 0.995939
736.17 1.27509
739.034 1.07928
741.899 0.860471
744.763 0.822685
747.628 0.939978
750.492 1.03051
753.357 1.28127
756.221 1.37607
759.086 0.931317
761.95 0.643051
764.814 0.573735
767.679 0.602195
770.543 0.754169
773.408 1.0343
776.272 1.00236
779.137 0.646068
782.001 0.589356
784.866 0.611483
787.73 0.576797
790.595 0.583954
793.459 0.684342
796.324 0.772872
799.188 0.932999
802.053 1.23271
804.917 1.3625
807.782 0.649707
810.646 0.489642
813.51 0.513376
816.375 0.553925
819.239 0.592435
822.104 0.672236
824.968 0.779796
827.833 0.951728
830.697 1.22201
833.562 0.972758
836.426 0.66108
839.291 0.657821
842.155 0.778031
845.02 1.15206
847.884 1.40872
850.749 0.932209
853.613 0.573847
856.478 0.503147
859.342 0.476606
862.207 0.463836
865.071 0.480426
867.935 0.498415
870.8 0.508166
873.664 0.525693
876.529 0.525054
879.393 0.539763
882.258 0.55879
885.122 0.586692
887.987 0.587971
890.851 0.619859
893.716 0.607742
896.58 0.620477
899.445 0.665247
902.309 0.713043
905.174 0.802303
908.038 0.945036
910.903 1.10203
913.767 0.854834
916.632 0.582271
919.496 0.516844
922.36 0.516943
925.225 0.538384
928.089 0.549471
930.954 0.558882
933.818 0.607189
936.683 0.654624
939.547 0.737028
942.412 0.833098
945.276 0.862088
948.141 0.704969
951.005 0.545902
953.87 0.504225
956.734 0.504429
959.599 0.507592
962.463 0.499961
965.328 0.508973
968.192 0.523626
971.057 0.536385
973.921 0.542594
976.785 0.565312
979.65 0.60207
982.514 0.567488
985.379 0.540159
988.243 0.550461
991.108 0.551754
993.972 0.564896
996.837 0.57041
999.701 0.577609
1002.57 0.581182
1005.43 0.593639
1008.29 0.592187
1011.16 0.595189
1014.02 0.598644
1016.89 0.612275
1019.75 0.626284
1022.62 0.644639
1025.48 0.680211
1028.35 0.70302
1031.21 0.735551
1034.07 0.756868
1036.94 0.762383
1039.8 0.754957
1042.67 0.734423
1045.53 0.705291
1048.4 0.663979
1051.26 0.644595
1054.13 0.637275
1056.99 0.628994
1059.86 0.625765
1062.72 0.628047
1065.58 0.622995
1068.45 0.618405
1071.31 0.62102
1074.18 0.619379
1077.04 0.63103
1079.91 0.63448
1082.77 0.634715
1085.64 0.6532
1088.5 0.6586
1091.36 0.646493
1094.23 0.658391
1097.09 0.657584
1099.96 0.673817
1102.82 0.676697
1105.69 0.666496
1108.55 0.657954
1111.42 0.665271
1114.28 0.672299
1117.14 0.695173
1120.01 0.708185
1122.87 0.686261
1125.74 0.703219
1128.6 0.737227
1131.47 0.751801
1134.33 0.778957
1137.2 0.758827
1140.06 0.738586
1142.92 0.732298
1145.79 0.741526
1148.65 0.760156
1151.52 0.804653
1154.38 0.86955
1157.25 0.95647
1160.11 1.12143
1162.98 0.968562
1165.84 0.714274
1168.71 0.679431
1171.57 0.68533
1174.43 0.708025
1177.3 0.722828
1180.16 0.766865
1183.03 0.777656
1185.89 0.808106
1188.76 0.849332
1191.62 0.873747
1194.49 0.898326
1197.35 0.8856
1200.21 0.763784
1203.08 0.735958
1205.94 0.748783
1208.81 0.745948
1211.67 0.742713
1214.54 0.743901
1217.4 0.763107
1220.27 0.810214
1223.13 0.799247
1225.99 0.823625
1228.86 0.817111
1231.72 0.830591
1234.59 0.840725
1237.45 0.844109
1240.32 0.868093
1243.18 0.856653
1246.05 0.889328
1248.91 0.917007
1251.78 0.943215
1254.64 0.905738
1257.5 0.916873
1260.37 0.936721
1263.23 0.937536
1266.1 0.978009
1268.96 0.965556
1271.83 0.979641
1274.69 1.00899
1277.56 1.0448
1280.42 1.07465
1283.28 1.08981
1286.15 1.11822
1289.01 1.15707
1291.88 1.18727
1294.74 1.20021
1297.61 1.21868
1300.47 1.2584
1303.34 1.30793
1306.2 1.34511
1309.06 1.37782
1311.93 1.42844
1314.79 1.47377
1317.66 1.54469
1320.52 1.6157
1323.39 1.65422
1326.25 1.6964
1329.12 1.73907
1331.98 1.80042
1334.84 1.92215
1337.71 2.04237
1340.57 2.17113
1343.44 2.24837
1346.3 2.19451
1349.17 1.92851
1352.03 1.68241
1354.9 1.55462
1357.76 1.39748
1360.62 1.25077
1363.49 1.09882
1366.35 1.02659
1369.22 0.988164
1372.08 0.965223
1374.95 0.880645
1377.81 0.827007
1380.68 0.806891
1383.54 0.835868
1386.41 0.878707
1389.27 0.875261
1392.13 0.81452
1395 0.794252
1397.86 0.811211
1400.73 0.849281
1403.59 0.895127
1406.46 0.87223
1409.32 0.809379
1412.19 0.73778
1415.05 0.701949
1417.91 0.665052
1420.78 0.659734
1423.64 0.693823
1426.51 0.726995
1429.37 0.743984
1432.24 0.795503
1435.1 0.793581
1437.97 0.787903
1440.83 0.815076
1443.69 0.823137
1446.56 0.849468
1449.42 0.878185
1452.29 0.92655
1455.15 0.934974
1458.02 0.988103
1460.88 1.07033
1463.75 1.1291
1466.61 1.22174
1469.47 1.34153
1472.34 1.27165
1475.2 1.08167
1478.07 1.05255
1480.93 1.05897
1483.8 1.11525
1486.66 1.1776
1489.53 1.20341
1492.39 1.28612
1495.26 1.33128
1498.12 1.37452
1500.98 1.42992
1503.85 1.48659
1506.71 1.49908
1509.58 1.63068
1512.44 1.71516
1515.31 1.78975
1518.17 1.87253
1521.04 1.88531
1523.9 1.9923
1526.76 2.05713
1529.63 2.18155
1532.49 2.19183
1535.36 2.37101
1538.22 2.35426
1541.09 2.31255
1543.95 2.21592
1546.82 2.04557
1549.68 1.85155
1552.54 1.69314
1555.41 1.53787
1558.27 1.27247
1561.14 1.20481
1564 1.11735
1566.87 1.00704
1569.73 0.814416
1572.6 0.681156
1575.46 0.537355
1578.33 0.486869
1581.19 0.485046
1584.05 0.504794
1586.92 0.564766
1589.78 0.639084
1592.65 0.73037
1595.51 0.736431
1598.38 0.678226
1601.24 0.694384
1604.11 0.757313
1606.97 0.60526
1609.83 0.427048
1612.7 0.35399
1615.56 0.314611
1618.43 0.283696
1621.29 0.284161
1624.16 0.293728
1627.02 0.280493
1629.89 0.287684
1632.75 0.298272
1635.61 0.316182
1638.48 0.314565
1641.34 0.304173
1644.21 0.311852
1647.07 0.304319
1649.94 0.28937
1652.8 0.29369
1655.67 0.286563
1658.53 0.298118
1661.39 0.302369
1664.26 0.299422
1667.12 0.304688
1669.99 0.30354
1672.85 0.304299
1675.72 0.294568
1678.58 0.305221
1681.45 0.30365
1684.31 0.292969
1687.18 0.321283
1690.04 0.314538
1692.9 0.316469
1695.77 0.314515
1698.63 0.322373
1701.5 0.346441
1704.36 0.3302
1707.23 0.333332
1710.09 0.305312
1712.96 0.307252
1715.82 0.323959
1718.68 0.304037
1721.55 0.303461
1724.41 0.320032
1727.28 0.320943
1730.14 0.316804
1733.01 0.31515
1735.87 0.318446
1738.74 0.313216
1741.6 0.313336
1744.46 0.33582
1747.33 0.319888
1750.19 0.306964
1753.06 0.312096
1755.92 0.32386
1758.79 0.322095
1761.65 0.326823
1764.52 0.320488
1767.38 0.318778
1770.24 0.332273
1773.11 0.311326
1775.97 0.323611
1778.84 0.303558
1781.7 0.321515
1784.57 0.320101
1787.43 0.333107
1790.3 0.32646
1793.16 0.312445
1796.02 0.33318
1798.89 0.332244
1801.75 0.327195
1804.62 0.343308
1807.48 0.314604
1810.35 0.318289
1813.21 0.310355
1816.08 0.302529
1818.94 0.312825
1821.81 0.338573
1824.67 0.322915
1827.53 0.314687
1830.4 0.315428
1833.26 0.317552
1836.13 0.324918
1838.99 0.3227
1841.86 0.313925
1844.72 0.302556
1847.59 0.311374
1850.45 0.328342
1853.31 0.318405
1856.18 0.300374
1859.04 0.306433
1861.91 0.316822
1864.77 0.325424
1867.64 0.336901
1870.5 0.310595
1873.37 0.321275
1876.23 0.318438
1879.09 0.316224
1881.96 0.305256
1884.82 0.283951
1887.69 0.306935
1890.55 0.288156
1893.42 0.300223
1896.28 0.299442
1899.15 0.298232
1902.01 0.307388
1904.87 0.303369
1907.74 0.306047
1910.6 0.322876
1913.47 0.306767
1916.33 0.278112
1919.2 0.303877
1922.06 0.299588
1924.93 0.296053
1927.79 0.292843
1930.66 0.305239
1933.52 0.312704
1936.38 0.304193
1939.25 0.293638
1942.11 0.293913
1944.98 0.295535
1947.84 0.299702
1950.71 0.281704
1953.57 0.299983
1956.44 0.307768
1959.3 0.283328
1962.16 0.272062
1965.03 0.229332
1967.89 0.253182
1970.76 0.241072
1973.62 0.206563
1976.49 0.242126
1979.35 0.260812
1982.22 0.28885
1985.08 0.268289
1987.94 0.268212
1990.81 0.261407
1993.67 0.259856
1996.54 0.274501
1999.4 0.274611
2002.27 0.289844
2005.13 0.280498
2008 0.276238
2010.86 0.244541
2013.72 0.248519
2016.59 0.207619
2019.45 0.237305
2022.32 0.23769
2025.18 0.259253
2028.05 0.280335
2030.91 0.316874
2033.78 0.2891
2036.64 0.248329
2039.51 0.2546
2042.37 0.272144
2045.23 0.238598
2048.1 0.225924
2050.96 0.288399
2053.83 0.307522
2056.69 0.329791
2059.56 0.304943
2062.42 0.307032
2065.29 0.288149
2068.15 0.311791
2071.01 0.312253
2073.88 0.323549
2076.74 0.329945
2079.61 0.35264
2082.47 0.336876
2085.34 0.338429
2088.2 0.333932
2091.07 0.315241
2093.93 0.311602
2096.79 0.338357
2099.66 0.325625
2102.52 0.319562
2105.39 0.316462
2108.25 0.317959
2111.12 0.346651
2113.98 0.364311
2116.85 0.351118
2119.71 0.339612
2122.58 0.351779
2125.44 0.33156
2128.3 0.318323
2131.17 0.337004
2134.03 0.335312
2136.9 0.324011
2139.76 0.317889
2142.63 0.286093
2145.49 0.31511
2148.36 0.319264
2151.22 0.289747
2154.08 0.29294
2156.95 0.279224
2159.81 0.278303
2162.68 0.294815
2165.54 0.265923
2168.41 0.278345
2171.27 0.303915
2174.14 0.333943
2177 0.315557
2179.86 0.275046
2182.73 0.327442
2185.59 0.327371
2188.46 0.319443
2191.32 0.323232
2194.19 0.353208
2197.05 0.327359
2199.92 0.322208
2202.78 0.329426
2205.64 0.348421
2208.51 0.332489
2211.37 0.350538
2214.24 0.337973
2217.1 0.329937
2219.97 0.326779
2222.83 0.325217
2225.7 0.345866
2228.56 0.315013
2231.43 0.336024
2234.29 0.372093
2237.15 0.354162
2240.02 0.358456
2242.88 0.374919
2245.75 0.356313
2248.61 0.36758
2251.48 0.375495
2254.34 0.365856
2257.21 0.418342
2260.07 0.418489
2262.93 0.3773
2265.8 0.399335
2268.66 0.399799
2271.53 0.393006
2274.39 0.379751
2277.26 0.400679
2280.12 0.409506
2282.99 0.41599
2285.85 0.427957
2288.71 0.425131
2291.58 0.432995
2294.44 0.440059
2297.31 0.45005
2300.17 0.436696
2303.04 0.462807
2305.9 0.468899
2308.77 0.449586
2311.63 0.451105
2314.49 0.465665
2317.36 0.460502
2320.22 0.493333
2323.09 0.485171
2325.95 0.494932
2328.82 0.477854
2331.68 0.469896
2334.55 0.476012
2337.41 0.469289
2340.28 0.470223
2343.14 0.46485
2346 0.475967
2348.87 0.48224
2351.73 0.502371
2354.6 0.489157
2357.46 0.486046
2360.33 0.478103
2363.19 0.486224
2366.06 0.491684
2368.92 0.483815
2371.78 0.454553
2374.65 0.464668
2377.51 0.473231
2380.38 0.466847
2383.24 0.451257
2386.11 0.465935
2388.97 0.473378
2391.84 0.458493
2394.7 0.457507
2397.56 0.455872
2400.43 0.457002
2403.29 0.469029
2406.16 0.448682
2409.02 0.46538
2411.89 0.468685
2414.75 0.463778
2417.62 0.44384
2420.48 0.456658
2423.34 0.456269
2426.21 0.458113
2429.07 0.449646
2431.94 0.464458
2434.8 0.462413
2437.67 0.466379
2440.53 0.471322
2443.4 0.484231
2446.26 0.456827
2449.12 0.436594
2451.99 0.461536
2454.85 0.476631
2457.72 0.493169
2460.58 0.488593
2463.45 0.47137
2466.31 0.463299
2469.18 0.478002
2472.04 0.481011
2474.91 0.483569
2477.77 0.460878
2480.63 0.48998
2483.5 0.477592
2486.36 0.482912
2489.23 0.472137
2492.09 0.471731
2494.96 0.46168
2497.82 0.477813
2500.69 0.46184
2503.55 0.460125
2506.41 0.464256
2509.28 0.473305
2512.14 0.478274
2515.01 0.462777
2517.87 0.472339
2520.74 0.487809
2523.6 0.476296
2526.47 0.473095
2529.33 0.479571
2532.19 0.4908
2535.06 0.46827
2537.92 0.468046
2540.79 0.468211
2543.65 0.475664
2546.52 0.482788
2549.38 0.477386
2552.25 0.477719
2555.11 0.474408
2557.98 0.486635
2560.84 0.481987
2563.7 0.493575
2566.57 0.491532
2569.43 0.485979
2572.3 0.478319
2575.16 0.471978
2578.03 0.485746
2580.89 0.500635
2583.76 0.497832
2586.62 0.494489
2589.48 0.501041
2592.35 0.499466
2595.21 0.514929
2598.08 0.490457
2600.94 0.504175
2603.81 0.511623
2606.67 0.515634
2609.54 0.522756
2612.4 0.525143
2615.26 0.525532
2618.13 0.534028
2620.99 0.504061
2623.86 0.509761
2626.72 0.525869
2629.59 0.521395
2632.45 0.526874
2635.32 0.511906
2638.18 0.521412
2641.04 0.527687
2643.91 0.533788
2646.77 0.529139
2649.64 0.528574
2652.5 0.524245
2655.37 0.532554
2658.23 0.542592
2661.1 0.546542
2663.96 0.551527
2666.82 0.548499
2669.69 0.557957
2672.55 0.54093
2675.42 0.539044
2678.28 0.541943
2681.15 0.544352
2684.01 0.548684
2686.88 0.549801
2689.74 0.561904
2692.61 0.550793
2695.47 0.553434
2698.33 0.556687
2701.2 0.557249
2704.06 0.555287
2706.93 0.557525
2709.79 0.554783
2712.66 0.554985
2715.52 0.565087
2718.39 0.563182
2721.25 0.550256
2724.11 0.537793
2726.98 0.53927
2729.84 0.544722
2732.71 0.539532
2735.57 0.540551
2738.44 0.552844
2741.3 0.558567
2744.17 0.551349
2747.03 0.545485
2749.89 0.562685
2752.76 0.548093
2755.62 0.533119
2758.49 0.540245
2761.35 0.538717
2764.22 0.541119
2767.08 0.529838
2769.95 0.545796
2772.81 0.539668
2775.68 0.547272
2778.54 0.545444
2781.4 0.547013
2784.27 0.526481
2787.13 0.542668
2790 0.551847
2792.86 0.556601
2795.73 0.541804
2798.59 0.555335
2801.46 0.547967
2804.32 0.544512
2807.18 0.550481
2810.05 0.539995
2812.91 0.560159
2815.78 0.56935
2818.64 0.552579
2821.51 0.564748
2824.37 0.553967
2827.24 0.556957
2830.1 0.550075
2832.96 0.567984
2835.83 0.570932
2838.69 0.579199
2841.56 0.574411
2844.42 0.568956
2847.29 0.577342
2850.15 0.570298
2853.02 0.562611
2855.88 0.569142
2858.74 0.582421
2861.61 0.592579
2864.47 0.57748
2867.34 0.584864
2870.2 0.584127
2873.07 0.603035
2875.93 0.610642
2878.8 0.627359
2881.66 0.625367
2884.53 0.627505
2887.39 0.622948
2890.25 0.620434
2893.12 0.623422
2895.98 0.623755
2898.85 0.625973
2901.71 0.620118
2904.58 0.613019
2907.44 0.607153
2910.31 0.586836
2913.17 0.593386
2916.03 0.594236
2918.9 0.580029
2921.76 0.585139
2924.63 0.582378
2927.49 0.567313
2930.36 0.565867
2933.22 0.567575
2936.09 0.569303
2938.95 0.584397
2941.81 0.578023
2944.68 0.576656
2947.54 0.566802
2950.41 0.555045
2953.27 0.569883
2956.14 0.56693
2959 0.556289
2961.87 0.54597
2964.73 0.550449
2967.59 0.558771
2970.46 0.548083
2973.32 0.54832
2976.19 0.558069
2979.05 0.544247
2981.92 0.561957
2984.78 0.554595
2987.65 0.556858
2990.51 0.542725
2993.38 0.5545
2996.24 0.557709
2999.1 0.547508
3001.97 0.550671
3004.83 0.553323
3007.7 0.558448
3010.56 0.548774
3013.43 0.56039
3016.29 0.564417
3019.16 0.566826
3022.02 0.556251
3024.88 0.56005
3027.75 0.560541
3030.61 0.563462
3033.48 0.563508
3036.34 0.56506
3039.21 0.572581
3042.07 0.595297
3044.94 0.59118
3047.8 0.610868
3050.66 0.60824
3053.53 0.599511
3056.39 0.615057
3059.26 0.604863
3062.12 0.589567
3064.99 0.598475
3067.85 0.618052
3070.72 0.601876
3073.58 0.609617
3076.44 0.634444
3079.31 0.656525
3082.17 0.732282
3085.04 0.806442
3087.9 0.754745
3090.77 0.675632
3093.63 0.596037
3096.5 0.556871
3099.36 0.549868
3102.23 0.544483
3105.09 0.53612
3107.95 0.535365
3110.82 0.542188
3113.68 0.526006
3116.55 0.540386
3119.41 0.554298
3122.28 0.534742
3125.14 0.542233
3128.01 0.544828
3130.87 0.558366
3133.73 0.551057
3136.6 0.556531
3139.46 0.549999
3142.33 0.559623
3145.19 0.538928
3148.06 0.541461
3150.92 0.548043
3153.79 0.541843
3156.65 0.53184
3159.51 0.547218
3162.38 0.558436
3165.24 0.539547
3168.11 0.558864
3170.97 0.543571
3173.84 0.538852
3176.7 0.535215
3179.57 0.562863
3182.43 0.564584
3185.29 0.555384
3188.16 0.5344
3191.02 0.543097
3193.89 0.57225
3196.75 0.565971
3199.62 0.564087
3202.48 0.547339
3205.35 0.555019
3208.21 0.58685
3211.07 0.566055
3213.94 0.56707
3216.8 0.536786
3219.67 0.528626
3222.53 0.545847
3225.4 0.554749
3228.26 0.551231
3231.13 0.551974
3233.99 0.561881
3236.86 0.546048
3239.72 0.564343
3242.58 0.549889
3245.45 0.562016
3248.31 0.571524
3251.18 0.536109
3254.04 0.526049
3256.91 0.54024
3259.77 0.548899
3262.64 0.555394
3265.5 0.556347
3268.36 0.560607
