scanname 扫描263
timestamp 1/1/1970 00:45
scancount 1
laserwavenum 850.5
measurementstate Unknown
scanmode Identification
snr 8.06661 8.06661 8.06661
replacelist 0
peaks 14
726.203 0.173287 0 2.92281 0.000627819
768.26 0.150492 0 5.51078 0.000615483
841.21 0.141441 0 11.2625 0.000608935
887.629 0.138686 0 13.127 0.000534058
924.908 0.151078 0 19.1607 0.000619521
1040.62 0.10412 0 3.69491 0.000100274
1165.57 0.101131 0 1.98973 0.000103269
1343.39 0.267384 0 8.71617 0.000414482
1403.62 0.10466 0 2.43521 0.00011368
1482.28 0.167422 0 0.811683 7.05239e-05
1534.5 0.303736 0 5.97143 0.000376446
1585.24 0.0571468 0 2.68601 0.000117261
3063.21 0.0924447 0 1.04746 8.21211e-05
3076.06 0.0970138 0 2.38854 0.00013939
finalresult No match found 1A1110	9.07365e-25
spectrum 2048
0 -11.2764
2.86447 -12.006
5.72895 -9.08291
8.59342 -7.70744
11.4579 -4.08013
14.3224 0.768948
17.1868 -1.04709
20.0513 3.89351
22.9158 2.39538
25.7803 0.676289
28.6447 2.78364
31.5092 2.96708
34.3737 7.77686
37.2382 0.172272
40.1026 -0.519324
42.9671 4.64145
45.8316 2.66781
48.696 -0.284158
51.5605 -2.46459
54.425 0.12234
57.2895 8.99205
60.1539 2.95442
63.0184 0.900298
65.8829 4.82026
68.7474 7.22821
71.6118 4.19147
74.4763 3.05114
77.3408 3.30766
80.2053 1.46514
83.0697 2.15952
85.9342 3.91325
88.7987 4.55933
91.6632 0.948736
94.5276 -0.416932
97.3921 1.20363
100.257 10.3839
103.121 5.53031
105.986 4.73329
108.85 2.17345
111.714 4.67039
114.579 2.37439
117.443 3.68211
120.308 3.76317
123.172 4.28071
126.037 6.58876
128.901 7.29871
131.766 1.04506
134.63 -0.942238
137.495 3.70912
140.359 5.71927
143.224 2.59307
146.088 3.25408
148.953 3.66841
151.817 2.88595
154.682 3.1266
157.546 8.45437
160.411 9.2506
163.275 8.1559
166.139 0.884901
169.004 4.44474
171.868 5.78275
174.733 7.1361
177.597 1.41187
180.462 4.38492
183.326 3.48068
186.191 5.0071
189.055 -0.264733
191.92 -2.45009
194.784 2.45539
197.649 1.77709
200.513 1.81547
203.378 4.74586
206.242 3.6617
209.107 4.81549
211.971 4.64095
214.836 0.890244
217.7 9.16668
220.564 3.64283
223.429 2.62909
226.293 2.07621
229.158 3.39029
232.022 2.81771
234.887 1.93276
237.751 -0.906381
240.616 4.52052
243.48 2.87698
246.345 2.68762
249.209 8.28466
252.074 8.89691
254.938 10.9217
257.803 4.15217
260.667 1.53107
263.532 1.76335
266.396 2.46144
269.26 8.84205
272.125 3.12051
274.989 5.09895
277.854 4.41904
280.718 4.7968
283.583 -0.385824
286.447 5.87177
289.312 4.1057
292.176 2.25948
295.041 -0.391625
297.905 3.76686
300.77 3.37983
303.634 1.33924
306.499 1.26563
309.363 2.72564
312.228 7.12663
315.092 4.35701
317.957 1.64121
320.821 3.3403
323.686 3.06495
326.55 3.73779
329.414 1.48345
332.279 0.0815523
335.143 1.36141
338.008 7.08626
340.872 11.9337
343.737 3.85032
346.601 4.55023
349.466 2.9607
352.33 0.571167
355.195 3.84596
358.059 6.21825
360.924 10.5188
363.788 3.73467
366.653 6.6346
369.517 6.40731
372.382 6.04734
375.246 4.97464
378.111 -0.923338
380.975 3.51481
383.839 4.30417
386.704 -0.501745
389.568 1.9998
392.433 10.1214
395.297 3.64048
398.162 3.03662
401.026 4.32031
403.891 6.19218
406.755 8.15391
409.62 6.70247
412.484 2.08709
415.349 2.89527
418.213 1.78372
421.078 -2.21744
423.942 1.69619
426.807 1.53737
429.671 2.11043
432.535 3.02124
435.4 7.2556
438.264 5.90066
441.129 5.78693
443.993 4.20248
446.858 2.51996
449.722 4.10052
452.587 6.19905
455.451 7.14918
458.316 -0.68548
461.18 2.1055
464.045 5.90773
466.909 4.66901
469.774 6.24844
472.638 8.94535
475.503 12.6685
478.367 8.48619
481.232 0.811082
484.096 3.3666
486.961 4.40289
489.825 5.76927
492.689 4.80128
495.554 2.98299
498.418 1.55134
501.283 1.46662
504.147 4.64334
507.012 6.56115
509.876 7.36902
512.741 2.85111
515.605 -0.730243
518.47 0.694811
521.334 2.91025
524.199 4.65899
527.063 3.19419
529.928 4.97664
532.792 9.06134
535.657 6.313
538.521 4.53089
541.385 5.35944
544.25 4.69023
547.115 8.39601
549.979 1.54041
552.843 3.33306
555.708 8.83223
558.572 3.16281
561.437 -2.27581
564.301 2.41417
567.166 6.50895
570.03 5.62868
572.895 7.91186
575.759 2.86657
578.624 3.86951
581.488 5.44401
584.353 5.38825
587.217 4.14033
590.082 4.53651
592.946 2.81885
595.81 3.1823
598.675 3.70711
601.539 2.68522
604.404 1.80092
607.268 0.256589
610.133 0.957952
612.997 1.42145
615.862 1.50981
618.726 1.84109
621.591 1.37727
624.455 1.68685
627.32 1.49305
630.184 1.7352
633.049 1.57128
635.913 1.70247
638.778 1.72563
641.642 0.918737
644.507 1.20489
647.371 0.799244
650.235 0.687131
653.1 0.642483
655.964 0.723045
658.829 0.939887
661.693 0.779016
664.558 0.635744
667.422 0.580322
670.287 0.951105
673.151 0.749808
676.016 0.769257
678.88 0.82137
681.745 0.869116
684.609 0.944308
687.474 0.690295
690.338 0.789563
693.203 0.770792
696.067 0.810698
698.932 0.996402
701.796 0.918733
704.66 1.00907
707.525 1.0021
710.389 1.03635
713.254 1.05781
716.118 1.16089
718.983 1.33098
721.847 1.47764
724.712 1.72871
727.576 1.91516
730.441 1.81238
733.305 1.19864
736.17 0.904473
739.034 0.855226
741.899 0.837153
744.763 0.873787
747.628 0.944196
750.492 1.00199
753.357 1.17017
756.221 1.20169
759.086 1.06229
761.95 1.04906
764.814 1.30907
767.679 1.64555
770.543 2.05097
773.408 1.22017
776.272 0.634606
779.137 0.636327
782.001 0.602522
784.866 0.638855
787.73 0.624965
790.595 0.675818
793.459 0.720913
796.324 0.733515
799.188 0.763222
802.053 0.750085
804.917 0.71176
807.782 0.688143
810.646 0.793045
813.51 0.76964
816.375 0.78032
819.239 0.821115
822.104 0.821578
824.968 0.892255
827.833 0.858648
830.697 0.921476
833.562 0.955913
836.426 1.07486
839.291 1.20301
842.155 1.48425
845.02 1.8285
847.884 1.0556
850.749 0.603714
853.613 0.541806
856.478 0.593574
859.342 0.627792
862.207 0.629998
865.071 0.704227
867.935 0.680419
870.8 0.727671
873.664 0.785072
876.529 0.8505
879.393 0.895409
882.258 1.047
885.122 1.35803
887.987 1.66962
890.851 1.47586
893.716 0.969487
896.58 0.808355
899.445 0.760282
902.309 0.77324
905.174 0.802854
908.038 0.793024
910.903 0.81447
913.767 0.88122
916.632 0.995568
919.496 1.14511
922.36 1.38591
925.225 1.64567
928.089 1.66508
930.954 1.28518
933.818 0.822422
936.683 0.70149
939.547 0.670588
942.412 0.622912
945.276 0.628161
948.141 0.6273
951.005 0.647742
953.87 0.642242
956.734 0.650032
959.599 0.632537
962.463 0.640201
965.328 0.667165
968.192 0.670597
971.057 0.68618
973.921 0.680927
976.785 0.703884
979.65 0.691086
982.514 0.711106
985.379 0.729192
988.243 0.724454
991.108 0.736954
993.972 0.735182
996.837 0.747313
999.701 0.76011
1002.57 0.786647
1005.43 0.792132
1008.29 0.796333
1011.16 0.81755
1014.02 0.830588
1016.89 0.843101
1019.75 0.838601
1022.62 0.855575
1025.48 0.880538
1028.35 0.900093
1031.21 0.943998
1034.07 0.984847
1036.94 1.0278
1039.8 1.04895
1042.67 1.03721
1045.53 1.02882
1048.4 0.970126
1051.26 0.926982
1054.13 0.882887
1056.99 0.859709
1059.86 0.829621
1062.72 0.81944
1065.58 0.821433
1068.45 0.786078
1071.31 0.802019
1074.18 0.795189
1077.04 0.808803
1079.91 0.826564
1082.77 0.806635
1085.64 0.815718
1088.5 0.817115
1091.36 0.80803
1094.23 0.80796
1097.09 0.84665
1099.96 0.793543
1102.82 0.802333
1105.69 0.806538
1108.55 0.818929
1111.42 0.837288
1114.28 0.838527
1117.14 0.830739
1120.01 0.823609
1122.87 0.837665
1125.74 0.82664
1128.6 0.842119
1131.47 0.844457
1134.33 0.8497
1137.2 0.870163
1140.06 0.877223
1142.92 0.900513
1145.79 0.895171
1148.65 0.871696
1151.52 0.909027
1154.38 0.904999
1157.25 0.923004
1160.11 0.947014
1162.98 0.985068
1165.84 1.0602
1168.71 1.0372
1171.57 0.955352
1174.43 0.887432
1177.3 0.890134
1180.16 0.89301
1183.03 0.915201
1185.89 0.931968
1188.76 0.92874
1191.62 0.929308
1194.49 0.937768
1197.35 0.945726
1200.21 0.948309
1203.08 0.953912
1205.94 0.929948
1208.81 0.952391
1211.67 0.974447
1214.54 0.986858
1217.4 1.02172
1220.27 1.0299
1223.13 1.07612
1225.99 1.06026
1228.86 1.0367
1231.72 1.03987
1234.59 1.0668
1237.45 1.13031
1240.32 1.11413
1243.18 1.07532
1246.05 1.04207
1248.91 1.05119
1251.78 1.08911
1254.64 1.09339
1257.5 1.11497
1260.37 1.14166
1263.23 1.17981
1266.1 1.19143
1268.96 1.20114
1271.83 1.21521
1274.69 1.21494
1277.56 1.26112
1280.42 1.28281
1283.28 1.31837
1286.15 1.38117
1289.01 1.40745
1291.88 1.45885
1294.74 1.49622
1297.61 1.52591
1300.47 1.56172
1303.34 1.60735
1306.2 1.62931
1309.06 1.67558
1311.93 1.74836
1314.79 1.76747
1317.66 1.85011
1320.52 1.90396
1323.39 1.99549
1326.25 2.11014
1329.12 2.23305
1331.98 2.35924
1334.84 2.47586
1337.71 2.5032
1340.57 2.48318
1343.44 2.59912
1346.3 2.69606
1349.17 2.69765
1352.03 2.42714
1354.9 1.99966
1357.76 1.81567
1360.62 1.7785
1363.49 1.82027
1366.35 1.78326
1369.22 1.60281
1372.08 1.3327
1374.95 1.13309
1377.81 1.16396
1380.68 1.24961
1383.54 1.21555
1386.41 1.0329
1389.27 0.92293
1392.13 0.923916
1395 0.93885
1397.86 0.98083
1400.73 1.02483
1403.59 1.07491
1406.46 1.06358
1409.32 1.00358
1412.19 0.949098
1415.05 0.897634
1417.91 0.892265
1420.78 0.85563
1423.64 0.863146
1426.51 0.861913
1429.37 0.873364
1432.24 0.915484
1435.1 0.934193
1437.97 0.996423
1440.83 1.03229
1443.69 1.09827
1446.56 1.12483
1449.42 1.2036
1452.29 1.27365
1455.15 1.26962
1458.02 1.33897
1460.88 1.40069
1463.75 1.4182
1466.61 1.48752
1469.47 1.59441
1472.34 1.61127
1475.2 1.66167
1478.07 1.63644
1480.93 1.62598
1483.8 1.69061
1486.66 1.67429
1489.53 1.69514
1492.39 1.83123
1495.26 1.87043
1498.12 1.99671
1500.98 2.12948
1503.85 2.20648
1506.71 2.15346
1509.58 2.34111
1512.44 2.44351
1515.31 2.51254
1518.17 2.63373
1521.04 2.59927
1523.9 2.74775
1526.76 2.78471
1529.63 2.94374
1532.49 2.99387
1535.36 3.14853
1538.22 3.08685
1541.09 2.72955
1543.95 2.62521
1546.82 2.47438
1549.68 2.21604
1552.54 1.98509
1555.41 1.72912
1558.27 1.45012
1561.14 1.45344
1564 1.38313
1566.87 1.23587
1569.73 1.02864
1572.6 0.833674
1575.46 0.58829
1578.33 0.510325
1581.19 0.521983
1584.05 0.567133
1586.92 0.63491
1589.78 0.608659
1592.65 0.448682
1595.51 0.391773
1598.38 0.339408
1601.24 0.322013
1604.11 0.346488
1606.97 0.314869
1609.83 0.324327
1612.7 0.32147
1615.56 0.291811
1618.43 0.285826
1621.29 0.285542
1624.16 0.296738
1627.02 0.312271
1629.89 0.30003
1632.75 0.298341
1635.61 0.291081
1638.48 0.293661
1641.34 0.289196
1644.21 0.324055
1647.07 0.308726
1649.94 0.32051
1652.8 0.258515
1655.67 0.294694
1658.53 0.298039
1661.39 0.291473
1664.26 0.297443
1667.12 0.29913
1669.99 0.309422
1672.85 0.308447
1675.72 0.295272
1678.58 0.333462
1681.45 0.303263
1684.31 0.331174
1687.18 0.316997
1690.04 0.32885
1692.9 0.319617
1695.77 0.317554
1698.63 0.316079
1701.5 0.328342
1704.36 0.342883
1707.23 0.334361
1710.09 0.335322
1712.96 0.325258
1715.82 0.345954
1718.68 0.32565
1721.55 0.335887
1724.41 0.356351
1727.28 0.336759
1730.14 0.349645
1733.01 0.349096
1735.87 0.361294
1738.74 0.351012
1741.6 0.325815
1744.46 0.333097
1747.33 0.338671
1750.19 0.336264
1753.06 0.356037
1755.92 0.356715
1758.79 0.354836
1761.65 0.333389
1764.52 0.369912
1767.38 0.350563
1770.24 0.35542
1773.11 0.327461
1775.97 0.352825
1778.84 0.369489
1781.7 0.368675
1784.57 0.3794
1787.43 0.355701
1790.3 0.348511
1793.16 0.339912
1796.02 0.354353
1798.89 0.353548
1801.75 0.371776
1804.62 0.375674
1807.48 0.351718
1810.35 0.370607
1813.21 0.368176
1816.08 0.374803
1818.94 0.38661
1821.81 0.384795
1824.67 0.407392
1827.53 0.431994
1830.4 0.438872
1833.26 0.411056
1836.13 0.375536
1838.99 0.382787
1841.86 0.360118
1844.72 0.365577
1847.59 0.376042
1850.45 0.37637
1853.31 0.351642
1856.18 0.350638
1859.04 0.358448
1861.91 0.361497
1864.77 0.360226
1867.64 0.344272
1870.5 0.361068
1873.37 0.356865
1876.23 0.372933
1879.09 0.398979
1881.96 0.378866
1884.82 0.365172
1887.69 0.35784
1890.55 0.344761
1893.42 0.367864
1896.28 0.376735
1899.15 0.348844
1902.01 0.32744
1904.87 0.378021
1907.74 0.380259
1910.6 0.382194
1913.47 0.365531
1916.33 0.348333
1919.2 0.361085
1922.06 0.351838
1924.93 0.344921
1927.79 0.324294
1930.66 0.359717
1933.52 0.302253
1936.38 0.340086
1939.25 0.342601
1942.11 0.357559
1944.98 0.328659
1947.84 0.300744
1950.71 0.316984
1953.57 0.321917
1956.44 0.333217
1959.3 0.342172
1962.16 0.338378
1965.03 0.318156
1967.89 0.304755
1970.76 0.326087
1973.62 0.328491
1976.49 0.334953
1979.35 0.276289
1982.22 0.325344
1985.08 0.345711
1987.94 0.348318
1990.81 0.330514
1993.67 0.327437
1996.54 0.304309
1999.4 0.326116
2002.27 0.322454
2005.13 0.304382
2008 0.279429
2010.86 0.28885
2013.72 0.274987
2016.59 0.289206
2019.45 0.366107
2022.32 0.310558
2025.18 0.338208
2028.05 0.279029
2030.91 0.302639
2033.78 0.295783
2036.64 0.322429
2039.51 0.308871
2042.37 0.302862
2045.23 0.350687
2048.1 0.358553
2050.96 0.381171
2053.83 0.35074
2056.69 0.349505
2059.56 0.331955
2062.42 0.342123
2065.29 0.367096
2068.15 0.368739
2071.01 0.387467
2073.88 0.347859
2076.74 0.365295
2079.61 0.364831
2082.47 0.357412
2085.34 0.384911
2088.2 0.363822
2091.07 0.374463
2093.93 0.391869
2096.79 0.369564
2099.66 0.383925
2102.52 0.389844
2105.39 0.379035
2108.25 0.368344
2111.12 0.391033
2113.98 0.386302
2116.85 0.389976
2119.71 0.411329
2122.58 0.385058
2125.44 0.382767
2128.3 0.371218
2131.17 0.361178
2134.03 0.365894
2136.9 0.384784
2139.76 0.359399
2142.63 0.367282
2145.49 0.361118
2148.36 0.373334
2151.22 0.359837
2154.08 0.261721
2156.95 0.308219
2159.81 0.333412
2162.68 0.330391
2165.54 0.319765
2168.41 0.315485
2171.27 0.353847
2174.14 0.364536
2177 0.387711
2179.86 0.329336
2182.73 0.326968
2185.59 0.331665
2188.46 0.355871
2191.32 0.389518
2194.19 0.367804
2197.05 0.386115
2199.92 0.379629
2202.78 0.376494
2205.64 0.37048
2208.51 0.382092
2211.37 0.400871
2214.24 0.385468
2217.1 0.374024
2219.97 0.388109
2222.83 0.397398
2225.7 0.406133
2228.56 0.397374
2231.43 0.406235
2234.29 0.399479
2237.15 0.428652
2240.02 0.426369
2242.88 0.412686
2245.75 0.421507
2248.61 0.398271
2251.48 0.454064
2254.34 0.413594
2257.21 0.423196
2260.07 0.43335
2262.93 0.439403
2265.8 0.443307
2268.66 0.447813
2271.53 0.465855
2274.39 0.45729
2277.26 0.454619
2280.12 0.43568
2282.99 0.478592
2285.85 0.485387
2288.71 0.493597
2291.58 0.485257
2294.44 0.489264
2297.31 0.470039
2300.17 0.506208
2303.04 0.5205
2305.9 0.524033
2308.77 0.513772
2311.63 0.518925
2314.49 0.529999
2317.36 0.546578
2320.22 0.531506
2323.09 0.539913
2325.95 0.550489
2328.82 0.536838
2331.68 0.541037
2334.55 0.562359
2337.41 0.565888
2340.28 0.553278
2343.14 0.530081
2346 0.540926
2348.87 0.549265
2351.73 0.562966
2354.6 0.549304
2357.46 0.54522
2360.33 0.537816
2363.19 0.539973
2366.06 0.522934
2368.92 0.518692
2371.78 0.534094
2374.65 0.524189
2377.51 0.529114
2380.38 0.522448
2383.24 0.520078
2386.11 0.510738
2388.97 0.509972
2391.84 0.523917
2394.7 0.5189
2397.56 0.527212
2400.43 0.520824
2403.29 0.511859
2406.16 0.499145
2409.02 0.505503
2411.89 0.514403
2414.75 0.510821
2417.62 0.526696
2420.48 0.496837
2423.34 0.497782
2426.21 0.516324
2429.07 0.517609
2431.94 0.522636
2434.8 0.520916
2437.67 0.514991
2440.53 0.517843
2443.4 0.528957
2446.26 0.512638
2449.12 0.517381
2451.99 0.521002
2454.85 0.518462
2457.72 0.525025
2460.58 0.520418
2463.45 0.518943
2466.31 0.524364
2469.18 0.535376
2472.04 0.538905
2474.91 0.514548
2477.77 0.528365
2480.63 0.507812
2483.5 0.519809
2486.36 0.525413
2489.23 0.532983
2492.09 0.540852
2494.96 0.504533
2497.82 0.528319
2500.69 0.505204
2503.55 0.516921
2506.41 0.549318
2509.28 0.539331
2512.14 0.522939
2515.01 0.523569
2517.87 0.541288
2520.74 0.512383
2523.6 0.52729
2526.47 0.539521
2529.33 0.518858
2532.19 0.528292
2535.06 0.539602
2537.92 0.547106
2540.79 0.532366
2543.65 0.506869
2546.52 0.506369
2549.38 0.496476
2552.25 0.53021
2555.11 0.551515
2557.98 0.514648
2560.84 0.509502
2563.7 0.503537
2566.57 0.508292
2569.43 0.542698
2572.3 0.54766
2575.16 0.533039
2578.03 0.548866
2580.89 0.524802
2583.76 0.529374
2586.62 0.548757
2589.48 0.557418
2592.35 0.560907
2595.21 0.554213
2598.08 0.557355
2600.94 0.548248
2603.81 0.557265
2606.67 0.566424
2609.54 0.571963
2612.4 0.568616
2615.26 0.567717
2618.13 0.578192
2620.99 0.57681
2623.86 0.580021
2626.72 0.581346
2629.59 0.600967
2632.45 0.601937
2635.32 0.59495
2638.18 0.602974
2641.04 0.597592
2643.91 0.603054
2646.77 0.588577
2649.64 0.588259
2652.5 0.591068
2655.37 0.578246
2658.23 0.593854
2661.1 0.589525
2663.96 0.607089
2666.82 0.603994
2669.69 0.608157
2672.55 0.594561
2675.42 0.600468
2678.28 0.611178
2681.15 0.5992
2684.01 0.608181
2686.88 0.621701
2689.74 0.613678
2692.61 0.61526
2695.47 0.617313
2698.33 0.61417
2701.2 0.616231
2704.06 0.625797
2706.93 0.61796
2709.79 0.606609
2712.66 0.615469
2715.52 0.607167
2718.39 0.604326
2721.25 0.599212
2724.11 0.602711
2726.98 0.61722
2729.84 0.613563
2732.71 0.597757
2735.57 0.591089
2738.44 0.611506
2741.3 0.602821
2744.17 0.603572
2747.03 0.598838
2749.89 0.594239
2752.76 0.598869
2755.62 0.596327
2758.49 0.592309
2761.35 0.597374
2764.22 0.607622
2767.08 0.611624
2769.95 0.623494
2772.81 0.611507
2775.68 0.624086
2778.54 0.621254
2781.4 0.593232
2784.27 0.61353
2787.13 0.631364
2790 0.624413
2792.86 0.619946
2795.73 0.600837
2798.59 0.606902
2801.46 0.622133
2804.32 0.621579
2807.18 0.620704
2810.05 0.610527
2812.91 0.612226
2815.78 0.629352
2818.64 0.624803
2821.51 0.635291
2824.37 0.640408
2827.24 0.622729
2830.1 0.634084
2832.96 0.635486
2835.83 0.638021
2838.69 0.640603
2841.56 0.642996
2844.42 0.645449
2847.29 0.643598
2850.15 0.644834
2853.02 0.65168
2855.88 0.656725
2858.74 0.64814
2861.61 0.650348
2864.47 0.670922
2867.34 0.674261
2870.2 0.683878
2873.07 0.697512
2875.93 0.700935
2878.8 0.709116
2881.66 0.70974
2884.53 0.710782
2887.39 0.695983
2890.25 0.697209
2893.12 0.682373
2895.98 0.690071
2898.85 0.707831
2901.71 0.707791
2904.58 0.71332
2907.44 0.702317
2910.31 0.720759
2913.17 0.693681
2916.03 0.671076
2918.9 0.664966
2921.76 0.634569
2924.63 0.637953
2927.49 0.662573
2930.36 0.661639
2933.22 0.644106
2936.09 0.624966
2938.95 0.636234
2941.81 0.648267
2944.68 0.658505
2947.54 0.642102
2950.41 0.641086
2953.27 0.641226
2956.14 0.631115
2959 0.637665
2961.87 0.626859
2964.73 0.630933
2967.59 0.654833
2970.46 0.625343
2973.32 0.640243
2976.19 0.645089
2979.05 0.638693
2981.92 0.635155
2984.78 0.650776
2987.65 0.634496
2990.51 0.647484
2993.38 0.642057
2996.24 0.644346
2999.1 0.649102
3001.97 0.653012
3004.83 0.681084
3007.7 0.662349
3010.56 0.668675
3013.43 0.700227
3016.29 0.680043
3019.16 0.681742
3022.02 0.679407
3024.88 0.691154
3027.75 0.686759
3030.61 0.689091
3033.48 0.678991
3036.34 0.694713
3039.21 0.703194
3042.07 0.729114
3044.94 0.74335
3047.8 0.737113
3050.66 0.792333
3053.53 0.823202
3056.39 0.880821
3059.26 0.944358
3062.12 0.938516
3064.99 0.900631
3067.85 0.890519
3070.72 0.890475
3073.58 0.95425
3076.44 1.00446
3079.31 0.999024
3082.17 0.900706
3085.04 0.829924
3087.9 0.735777
3090.77 0.703856
3093.63 0.66025
3096.5 0.636643
3099.36 0.647454
3102.23 0.624036
3105.09 0.629627
3107.95 0.610113
3110.82 0.590197
3113.68 0.595509
3116.55 0.610508
3119.41 0.608766
3122.28 0.582977
3125.14 0.58051
3128.01 0.584393
3130.87 0.582511
3133.73 0.59367
3136.6 0.614078
3139.46 0.59178
3142.33 0.592076
3145.19 0.610044
3148.06 0.598893
3150.92 0.5994
3153.79 0.616978
3156.65 0.591631
3159.51 0.60741
3162.38 0.603567
3165.24 0.612775
3168.11 0.593903
3170.97 0.602259
3173.84 0.598543
3176.7 0.59306
3179.57 0.617111
3182.43 0.606543
3185.29 0.595507
3188.16 0.594074
3191.02 0.565066
3193.89 0.584534
3196.75 0.591804
3199.62 0.593698
3202.48 0.600887
3205.35 0.615733
3208.21 0.592819
3211.07 0.598613
3213.94 0.60916
3216.8 0.600445
3219.67 0.630174
3222.53 0.596146
3225.4 0.612972
3228.26 0.605318
3231.13 0.619483
3233.99 0.619954
3236.86 0.614619
3239.72 0.621208
3242.58 0.617176
3245.45 0.608849
3248.31 0.596282
3251.18 0.606327
3254.04 0.60858
3256.91 0.623793
3259.77 0.611704
3262.64 0.615781
3265.5 0.596112
3268.36 0.595273
3271.23 0.614444
3274.09 0.613108
3276.96 0.616099
3279.82 0.639198
3282.69 0.616769
3285.55 0.62588
3288.42 0.630626
3291.28 0.636677
3294.14 0.611705
3297.01 0.603361
3299.87 0.58722
3302.74 0.609628
3305.6 0.644508
3308.47 0.602503
3311.33 0.61682
3314.2 0.632285
3317.06 0.631423
3319.93 0.632083
3322.79 0.629649
3325.65 0.624456
3328.52 0.587061
3331.38 0.612317
3334.25 0.619603
