scanname 扫描022
timestamp 1/1/1970 01:38
scancount 26
laserwavenum 850.5
measurementstate Unknown
scanmode Identification
snr 3.0046 3.0046 3.0046
replacelist 0
peaks 17
698.806 0.0214825 0 2.10369 0.000195146
759.01 0.0104343 0 1.37119 7.19684e-05
910.524 0.000178763 0 2.22244 3.18578e-05
966.294 0.00717528 0 5.77735 4.63887e-05
1026 0.00380957 0 2.714 2.18658e-05
1067.03 0.00120771 0 0.341381 1.09956e-05
1394.34 0.00378524 0 0.582602 1.57807e-05
1451.17 0.0174463 0 7.67936 9.11293e-05
1493.47 0.0118844 0 5.57043 6.98095e-05
1538.67 0.00854 0 2.76994 4.28237e-05
1557.42 0.00823241 0 3.20847 4.79462e-05
1649.54 0.0070705 0 2.86109 4.70676e-05
1697.8 0.00647341 0 2.61853 4.08016e-05
1734.74 0.00458605 0 1.72478 2.97845e-05
1768 0.00253544 0 0.829677 1.9681e-05
1792.79 0.00150837 0 0.780289 1.94062e-05
2359.77 0.00456641 0 0.551951 1.66461e-05
finalresult No match found 1A13496	5.03057e-05
spectrum 2048
0 0.719381
2.86447 -0.816205
5.72895 -1.3724
8.59342 -1.50163
11.4579 -1.99285
14.3224 -0.924444
17.1868 -2.30895
20.0513 -2.49097
22.9158 0.195719
25.7803 -0.0615427
28.6447 -0.0877093
31.5092 -0.831574
34.3737 -0.136726
37.2382 0.412571
40.1026 0.432816
42.9671 -1.08145
45.8316 -0.352897
48.696 -0.656805
51.5605 -0.476585
54.425 -1.04858
57.2895 0.271346
60.1539 0.607939
63.0184 2.14216
65.8829 1.64666
68.7474 -0.542875
71.6118 0.74811
74.4763 0.844418
77.3408 0.827086
80.2053 1.00991
83.0697 0.230444
85.9342 0.288907
88.7987 0.0387374
91.6632 0.706253
94.5276 0.562665
97.3921 -1.02961
100.257 -0.602342
103.121 -0.399462
105.986 -0.288026
108.85 0.510188
111.714 1.53959
114.579 0.99528
117.443 -1.62682
120.308 -0.462585
123.172 1.51483
126.037 -1.03889
128.901 -1.94867
131.766 -0.484562
134.63 0.102587
137.495 0.732295
140.359 1.7589
143.224 -0.34072
146.088 -0.881634
148.953 -0.670353
151.817 -1.22365
154.682 1.42195
157.546 0.649236
160.411 -0.275056
163.275 0.563578
166.139 0.205798
169.004 -0.488375
171.868 -1.82688
174.733 0.0637845
177.597 0.454194
180.462 1.39958
183.326 0.455399
186.191 0.642967
189.055 -0.424749
191.92 0.594994
194.784 0.306582
197.649 0.67836
200.513 1.11747
203.378 0.696839
206.242 0.254647
209.107 1.41229
211.971 2.50197
214.836 0.474902
217.7 1.93708
220.564 0.698412
223.429 -0.231422
226.293 -0.619388
229.158 -0.140879
232.022 1.14008
234.887 1.57336
237.751 0.865957
240.616 1.56749
243.48 -0.0957619
246.345 0.239916
249.209 0.531539
252.074 -0.403608
254.938 -0.393993
257.803 -0.0789275
260.667 0.942251
263.532 1.82005
266.396 1.31477
269.26 -0.0904903
272.125 0.423411
274.989 -0.299712
277.854 1.22364
280.718 0.292289
283.583 0.154957
286.447 -2.14222
289.312 -0.768849
292.176 0.700734
295.041 1.42071
297.905 0.552162
300.77 0.0269833
303.634 -0.908087
306.499 -1.96145
309.363 -0.548164
312.228 0.943206
315.092 0.0680185
317.957 -0.108063
320.821 0.933412
323.686 0.449825
326.55 0.353411
329.414 -0.806583
332.279 1.47517
335.143 1.3448
338.008 -0.441753
340.872 2.16533
343.737 1.2186
346.601 -0.0485025
349.466 -0.970745
352.33 0.344983
355.195 0.338702
358.059 -0.791268
360.924 2.0638
363.788 0.986247
366.653 0.957795
369.517 1.0154
372.382 1.71564
375.246 0.254342
378.111 0.708421
380.975 0.244688
383.839 0.115041
386.704 0.0599541
389.568 2.4464
392.433 1.28321
395.297 0.906119
398.162 -0.401832
401.026 -0.10774
403.891 -0.731748
406.755 -0.203356
409.62 -0.727367
412.484 -0.00359097
415.349 0.38542
418.213 0.14346
421.078 -0.453772
423.942 0.366595
426.807 -0.56095
429.671 1.30081
432.535 0.127663
435.4 -0.0890338
438.264 -0.264713
441.129 0.500709
443.993 0.449599
446.858 -1.63266
449.722 -0.885525
452.587 0.168129
455.451 1.81149
458.316 1.40368
461.18 1.16518
464.045 0.251407
466.909 -0.436941
469.774 0.138259
472.638 0.446008
475.503 1.19143
478.367 0.668575
481.232 1.04952
484.096 0.807403
486.961 0.480224
489.825 -0.931037
492.689 1.45436
495.554 0.789289
498.418 1.01179
501.283 -0.111395
504.147 0.745919
507.012 -0.256546
509.876 1.68011
512.741 2.18015
515.605 1.57354
518.47 -0.462025
521.334 1.92081
524.199 -1.63293
527.063 -0.617623
529.928 0.767007
532.792 0.799803
535.657 0.767229
538.521 -1.71353
541.385 1.23164
544.25 2.76053
547.115 0.642693
549.979 0.0346049
552.843 0.637604
555.708 0.758401
558.572 0.340314
561.437 0.548617
564.301 -0.417455
567.166 -0.699351
570.03 -0.994811
572.895 0.174763
575.759 1.1416
578.624 0.22132
581.488 -0.760433
584.353 -2.04293
587.217 -0.506467
590.082 -0.0715271
592.946 0.214379
595.81 0.215514
598.675 -0.244374
601.539 -0.466487
604.404 0.0329655
607.268 -0.273332
610.133 -0.693308
612.997 -0.658956
615.862 -0.174164
618.726 -0.115776
621.591 -0.323967
624.455 0.137988
627.32 -0.0627906
630.184 -0.222791
633.049 -0.149532
635.913 -0.137482
638.778 -0.173629
641.642 0.0276408
644.507 -0.0558635
647.371 -0.035026
650.235 -0.0685662
653.1 -0.134683
655.964 -0.0799858
658.829 -0.0586823
661.693 -0.0417736
664.558 0.00238553
667.422 -0.0652902
670.287 -0.0735509
673.151 -0.0542957
676.016 0.0604299
678.88 -0.0350188
681.745 -0.00356407
684.609 0.0284646
687.474 -0.0267848
690.338 0.0493194
693.203 0.149084
696.067 0.197345
698.932 0.262476
701.796 0.226999
704.66 0.104031
707.525 0.00602188
710.389 -0.000386719
713.254 -0.0182614
716.118 -0.0676764
718.983 -0.102412
721.847 -0.10033
724.712 -0.14277
727.576 -0.0905729
730.441 -0.0888705
733.305 -0.0828973
736.17 -0.0582742
739.034 -0.0273353
741.899 -0.0228036
744.763 -0.0242258
747.628 0.0157748
750.492 0.0448839
753.357 0.0701599
756.221 0.112926
759.086 0.104367
761.95 0.113275
764.814 0.0633571
767.679 0.0414791
770.543 0.0169204
773.408 -0.0113052
776.272 -0.0160708
779.137 -0.0344549
782.001 -0.0648623
784.866 -0.0683777
787.73 -0.0635636
790.595 -0.0500018
793.459 -0.0560623
796.324 -0.0659119
799.188 -0.0412018
802.053 -0.0565652
804.917 -0.0732379
807.782 -0.0660149
810.646 -0.0621098
813.51 -0.0762449
816.375 -0.0730241
819.239 -0.0678278
822.104 -0.0531257
824.968 -0.0743892
827.833 -0.0606468
830.697 -0.0608832
833.562 -0.0594566
836.426 -0.0492878
839.291 -0.0577577
842.155 -0.0540231
845.02 -0.0469591
847.884 -0.0561712
850.749 -0.0506737
853.613 -0.0535824
856.478 -0.0605896
859.342 -0.0624323
862.207 -0.0628161
865.071 -0.0684307
867.935 -0.0576326
870.8 -0.0465089
873.664 -0.046448
876.529 -0.039168
879.393 -0.0340846
882.258 -0.0441393
885.122 -0.0577112
887.987 -0.048333
890.851 -0.0507336
893.716 -0.0506614
896.58 -0.0357506
899.445 -0.0311341
902.309 -0.0280586
905.174 -0.0145896
908.038 0.00568336
910.903 0.00907033
913.767 -0.000165149
916.632 -0.0136448
919.496 -0.0297223
922.36 -0.039308
925.225 -0.0349141
928.089 -0.0383824
930.954 -0.0339217
933.818 -0.0317313
936.683 -0.031998
939.547 -0.0306041
942.412 -0.0214767
945.276 -0.0216374
948.141 -0.0183918
951.005 -0.00935029
953.87 0.00286885
956.734 0.0250739
959.599 0.0443752
962.463 0.0699481
965.328 0.0790518
968.192 0.0721466
971.057 0.0563696
973.921 0.0352127
976.785 0.0274089
979.65 0.0160003
982.514 0.0145295
985.379 0.0144539
988.243 0.0208618
991.108 0.0197219
993.972 0.0251
996.837 0.0172611
999.701 0.0189117
1002.57 0.02403
1005.43 0.022818
1008.29 0.0213277
1011.16 0.02276
1014.02 0.0209531
1016.89 0.023136
1019.75 0.026052
1022.62 0.0310663
1025.48 0.0381712
1028.35 0.0432652
1031.21 0.0371035
1034.07 0.0182647
1036.94 0.00693987
1039.8 -0.000155831
1042.67 -0.00203571
1045.53 -0.000467475
1048.4 0.00199497
1051.26 0.00411134
1054.13 0.0019007
1056.99 0.00454796
1059.86 0.00193075
1062.72 0.00797502
1065.58 0.00965973
1068.45 0.0183491
1071.31 0.0134016
1074.18 0.00284994
1077.04 -0.00221527
1079.91 -0.00418271
1082.77 -0.00699238
1085.64 -0.0114007
1088.5 -0.0120859
1091.36 -0.0219331
1094.23 -0.0201767
1097.09 -0.0241316
1099.96 -0.0205426
1102.82 -0.0239725
1105.69 -0.0216462
1108.55 -0.0207946
1111.42 -0.0164164
1114.28 -0.0144209
1117.14 -0.0160919
1120.01 -0.0204741
1122.87 -0.0301784
1125.74 -0.0218744
1128.6 -0.0239405
1131.47 -0.0226228
1134.33 -0.0417608
1137.2 -0.0296452
1140.06 -0.0239647
1142.92 -0.0228993
1145.79 -0.0237475
1148.65 -0.0156648
1151.52 -0.0130915
1154.38 -0.0153326
1157.25 -0.00629039
1160.11 -0.0111121
1162.98 -0.0172374
1165.84 -0.0100895
1168.71 -0.0195294
1171.57 -0.0166371
1174.43 -0.0151613
1177.3 -0.0206827
1180.16 -0.0119274
1183.03 -0.00781364
1185.89 -0.00703321
1188.76 -0.0181191
1191.62 -0.011345
1194.49 -0.00901035
1197.35 -0.0164416
1200.21 -0.00987203
1203.08 -0.00539491
1205.94 -0.00696964
1208.81 -0.00956468
1211.67 -0.012438
1214.54 -0.0175659
1217.4 -0.013942
1220.27 -0.0084017
1223.13 -0.00927074
1225.99 -0.00723428
1228.86 -0.0057889
1231.72 -0.0139936
1234.59 -0.0166005
1237.45 -0.00845182
1240.32 -0.0114426
1243.18 -0.00303847
1246.05 -0.00640257
1248.91 -0.00768237
1251.78 -0.00757281
1254.64 -0.00591867
1257.5 -0.0123745
1260.37 -0.00873652
1263.23 -0.0031171
1266.1 -0.00361063
1268.96 -0.00664967
1271.83 0.000654447
1274.69 -0.00530545
1277.56 -0.00937819
1280.42 -0.00655249
1283.28 -0.00493986
1286.15 -0.00703735
1289.01 0.00368462
1291.88 -0.000803426
1294.74 -0.000976309
1297.61 -0.00283048
1300.47 0.00817212
1303.34 0.00730261
1306.2 0.00962004
1309.06 0.00500068
1311.93 0.0105318
1314.79 0.0129125
1317.66 0.0190357
1320.52 0.0105813
1323.39 0.00500198
1326.25 0.00807331
1329.12 0.00485452
1331.98 0.00891262
1334.84 0.016845
1337.71 0.0274248
1340.57 0.0238392
1343.44 0.0230046
1346.3 0.0135187
1349.17 0.0215949
1352.03 0.0194671
1354.9 0.0199864
1357.76 0.0306544
1360.62 0.0432331
1363.49 0.0429941
1366.35 0.0272891
1369.22 0.0398763
1372.08 0.0338947
1374.95 0.033548
1377.81 0.020802
1380.68 0.0179746
1383.54 0.0225339
1386.41 0.0293975
1389.27 0.0230421
1392.13 0.0336675
1395 0.0480603
1397.86 0.0432582
1400.73 0.0221979
1403.59 0.0249321
1406.46 0.0149214
1409.32 0.0157259
1412.19 0.0233268
1415.05 0.0514284
1417.91 0.0815362
1420.78 0.0543123
1423.64 0.0425703
1426.51 0.0424663
1429.37 0.0677666
1432.24 0.0805546
1435.1 0.116302
1437.97 0.0973609
1440.83 0.0898631
1443.69 0.115393
1446.56 0.137416
1449.42 0.153198
1452.29 0.192539
1455.15 0.207666
1458.02 0.114779
1460.88 0.0483833
1463.75 0.0500117
1466.61 0.0294804
1469.47 0.0477355
1472.34 0.0824513
1475.2 0.0375973
1478.07 0.0117072
1480.93 0.0235084
1483.8 0.0282166
1486.66 0.0776329
1489.53 0.11436
1492.39 0.134949
1495.26 0.15043
1498.12 0.0759638
1500.98 0.04181
1503.85 0.0701507
1506.71 0.120107
1509.58 0.0492922
1512.44 0.0511321
1515.31 0.0677997
1518.17 0.0784958
1521.04 0.108158
1523.9 0.0659643
1526.76 0.0429311
1529.63 0.0285183
1532.49 0.0656282
1535.36 0.0561094
1538.22 0.110035
1541.09 0.112613
1543.95 0.0685152
1546.82 0.0251549
1549.68 0.0465354
1552.54 0.0566788
1555.41 0.0993044
1558.27 0.152046
1561.14 0.0344617
1564 0.0185849
1566.87 0.0316725
1569.73 0.0362089
1572.6 0.022678
1575.46 0.0517524
1578.33 0.00874998
1581.19 0.00707185
1584.05 0.00705396
1586.92 -0.00137692
1589.78 -0.00748856
1592.65 0.00939511
1595.51 0.0188678
1598.38 0.0258546
1601.24 0.0365362
1604.11 0.0236159
1606.97 0.0113464
1609.83 0.0085679
1612.7 0.013808
1615.56 0.0417538
1618.43 0.0205968
1621.29 0.0255327
1624.16 0.0206449
1627.02 0.0203271
1629.89 0.0100284
1632.75 0.0477692
1635.61 0.0712879
1638.48 0.02537
1641.34 0.0178813
1644.21 0.0449114
1647.07 0.0891893
1649.94 0.0652994
1652.8 0.111026
1655.67 0.0141931
1658.53 0.0104041
1661.39 0.024629
1664.26 0.0178285
1667.12 0.0422943
1669.99 0.0638759
1672.85 0.0449496
1675.72 0.0432872
1678.58 0.0328231
1681.45 0.055019
1684.31 0.0862378
1687.18 0.0246014
1690.04 0.029107
1692.9 0.0346621
1695.77 0.0894765
1698.63 0.0872996
1701.5 0.0519612
1704.36 0.0297379
1707.23 0.0101888
1710.09 0.0212289
1712.96 0.042958
1715.82 0.0665255
1718.68 0.0354953
1721.55 0.000181464
1724.41 0.0057072
1727.28 0.0184726
1730.14 0.0401018
1733.01 0.0785327
1735.87 0.028035
1738.74 0.0403173
1741.6 0.0191231
1744.46 0.0268606
1747.33 0.0323837
1750.19 0.046374
1753.06 0.0119859
1755.92 0.0170384
1758.79 0.0124137
1761.65 0.0209599
1764.52 0.000877882
1767.38 0.031429
1770.24 0.0352422
1773.11 0.0315111
1775.97 0.000494191
1778.84 -0.0048266
1781.7 -0.00619889
1784.57 -0.0030364
1787.43 0.00291134
1790.3 0.0236201
1793.16 0.0255434
1796.02 0.0051383
1798.89 -0.00193532
1801.75 0.00445856
1804.62 -0.0109546
1807.48 -0.0139792
1810.35 -0.0109954
1813.21 -0.0133914
1816.08 -0.00982193
1818.94 -0.0163292
1821.81 -0.015704
1824.67 0.00689009
1827.53 -0.00690916
1830.4 -0.0167222
1833.26 -0.0237567
1836.13 -0.0236074
1838.99 -0.0100404
1841.86 -0.0105631
1844.72 0.00721445
1847.59 -0.017571
1850.45 -0.0293151
1853.31 -0.0307588
1856.18 -0.0402812
1859.04 -0.030419
1861.91 -0.0160347
1864.77 -0.0119202
1867.64 -0.0106587
1870.5 -0.0224945
1873.37 -0.0314702
1876.23 -0.0353429
1879.09 -0.0390807
1881.96 -0.0293619
1884.82 -0.0375777
1887.69 -0.0281769
1890.55 -0.03707
1893.42 -0.0346465
1896.28 -0.0421679
1899.15 -0.0404433
1902.01 -0.0448009
1904.87 -0.0493978
1907.74 -0.0458302
1910.6 -0.037148
1913.47 -0.037261
1916.33 -0.0274572
1919.2 -0.0335385
1922.06 -0.0411849
1924.93 -0.042801
1927.79 -0.0495232
1930.66 -0.0440604
1933.52 -0.054016
1936.38 -0.060462
1939.25 -0.0501937
1942.11 -0.0476146
1944.98 -0.0557848
1947.84 -0.0559034
1950.71 -0.0628651
1953.57 -0.0589377
1956.44 -0.0680123
1959.3 -0.0591992
1962.16 -0.0692165
1965.03 -0.0635957
1967.89 -0.0546121
1970.76 -0.0736711
1973.62 -0.0928038
1976.49 -0.0725129
1979.35 -0.0763232
1982.22 -0.0720424
1985.08 -0.0700561
1987.94 -0.0593565
1990.81 -0.0795731
1993.67 -0.0632457
1996.54 -0.0635544
1999.4 -0.0770023
2002.27 -0.068978
2005.13 -0.0908239
2008 -0.0863701
2010.86 -0.0749327
2013.72 -0.088
2016.59 -0.0716177
2019.45 -0.0908528
2022.32 -0.071412
2025.18 -0.0664615
2028.05 -0.0791049
2030.91 -0.0849478
2033.78 -0.0839653
2036.64 -0.0823852
2039.51 -0.0750289
2042.37 -0.0838835
2045.23 -0.0745373
2048.1 -0.0725424
2050.96 -0.0696699
2053.83 -0.0474395
2056.69 -0.0537583
2059.56 -0.0585572
2062.42 -0.0386713
2065.29 -0.0478487
2068.15 -0.054901
2071.01 -0.0584295
2073.88 -0.0461063
2076.74 -0.044619
2079.61 -0.0516602
2082.47 -0.0514755
2085.34 -0.0401601
2088.2 -0.0378091
2091.07 -0.0469351
2093.93 -0.0399698
2096.79 -0.0448578
2099.66 -0.0353721
2102.52 -0.0324328
2105.39 -0.0407556
2108.25 -0.0436781
2111.12 -0.0435505
2113.98 -0.0392593
2116.85 -0.0482946
2119.71 -0.0480227
2122.58 -0.0434121
2125.44 -0.0404792
2128.3 -0.0438759
2131.17 -0.0410408
2134.03 -0.0519318
2136.9 -0.0587058
2139.76 -0.0539459
2142.63 -0.072963
2145.49 -0.0690351
2148.36 -0.0732104
2151.22 -0.0737398
2154.08 -0.0673843
2156.95 -0.0786657
2159.81 -0.0614391
2162.68 -0.0689749
2165.54 -0.0669515
2168.41 -0.0702624
2171.27 -0.0732572
2174.14 -0.0650669
2177 -0.0624364
2179.86 -0.0701732
2182.73 -0.0389745
2185.59 -0.0577869
2188.46 -0.0551964
2191.32 -0.0666125
2194.19 -0.0605529
2197.05 -0.0566321
2199.92 -0.0534939
2202.78 -0.0403258
2205.64 -0.0538227
2208.51 -0.0435551
2211.37 -0.0453563
2214.24 -0.04468
2217.1 -0.0414577
2219.97 -0.0366393
2222.83 -0.0416992
2225.7 -0.0251853
2228.56 -0.0277314
2231.43 -0.0255065
2234.29 -0.0214004
2237.15 -0.0197511
2240.02 -0.00966025
2242.88 -0.0197428
2245.75 -0.0110532
2248.61 -0.0276296
2251.48 -0.0315124
2254.34 -0.0404325
2257.21 -0.0378461
2260.07 -0.0373688
2262.93 -0.0320746
2265.8 -0.0299696
2268.66 -0.0215972
2271.53 -0.0347656
2274.39 -0.0237614
2277.26 -0.0153666
2280.12 -0.0143538
2282.99 -0.0143224
2285.85 -0.0129206
2288.71 -0.00536543
2291.58 -0.00930483
2294.44 -0.00348854
2297.31 -0.00125425
2300.17 -0.00252211
2303.04 -0.000612936
2305.9 0.00199549
2308.77 0.00562037
2311.63 0.00874557
2314.49 0.0178132
2317.36 0.0275749
2320.22 0.0290006
2323.09 0.0390336
2325.95 0.0320853
2328.82 0.0308575
2331.68 0.0313341
2334.55 0.0385731
2337.41 0.0374435
2340.28 0.0417833
2343.14 0.0278745
2346 0.0270599
2348.87 0.0263976
2351.73 0.0351302
2354.6 0.0368208
2357.46 0.0435335
2360.33 0.055424
2363.19 0.0451
2366.06 0.0318585
2368.92 0.0284727
2371.78 0.0254507
2374.65 0.0174932
2377.51 0.0128351
2380.38 0.0100328
2383.24 -0.00276374
2386.11 -0.00372443
2388.97 -0.0072198
2391.84 0.00111945
2394.7 0.00217056
2397.56 -0.00817796
2400.43 -0.00715365
2403.29 -0.00739967
2406.16 -0.00920926
2409.02 -0.0114575
2411.89 -0.00510792
2414.75 -0.00397944
2417.62 -0.00664605
2420.48 -0.00320298
2423.34 -0.00484212
2426.21 -0.0148884
2429.07 -0.0114389
2431.94 -0.00553038
2434.8 -0.00937767
2437.67 -0.0133083
2440.53 -0.00293551
2443.4 -0.00561156
2446.26 -0.000249016
2449.12 -0.00121078
2451.99 -0.00910438
2454.85 -0.00804308
2457.72 -0.00827252
2460.58 -0.0103111
2463.45 -0.0171281
2466.31 -0.0047149
2469.18 0.0010498
2472.04 0.00254275
2474.91 -0.00126305
2477.77 -0.00107413
2480.63 -0.0174952
2483.5 -0.010983
2486.36 -0.00923147
2489.23 -0.000188963
2492.09 -0.000796697
2494.96 0.00317167
2497.82 -0.00370374
2500.69 -0.00269855
2503.55 -0.0054099
2506.41 -0.00622267
2509.28 0.00145141
2512.14 0.00063244
2515.01 -0.00270786
2517.87 -0.00479454
2520.74 5.35843e-05
2523.6 0.00261501
2526.47 -0.00134483
2529.33 -0.00527494
2532.19 0.00445493
2535.06 0.00388645
2537.92 0.00411005
2540.79 0.00741593
2543.65 0.000480988
2546.52 -0.000322527
2549.38 -0.00436322
2552.25 -0.00227789
2555.11 -0.00441907
2557.98 0.0036955
2560.84 0.00507921
2563.7 0.00452075
2566.57 0.00388981
2569.43 0.0031209
2572.3 0.00802948
2575.16 0.00892896
2578.03 0.00131339
2580.89 -0.000560654
2583.76 0.00176656
2586.62 -0.00118179
2589.48 0.00814981
2592.35 0.00402506
2595.21 0.00806475
2598.08 -0.00682749
2600.94 0.00348202
2603.81 0.0029893
2606.67 0.00045251
2609.54 0.00976506
2612.4 0.0114775
2615.26 0.00879174
2618.13 0.00443524
2620.99 0.00903842
2623.86 0.00697643
2626.72 0.0172091
2629.59 0.0133676
2632.45 0.00943247
2635.32 0.0132077
2638.18 0.0144297
2641.04 0.00916112
2643.91 0.0173973
2646.77 0.011506
2649.64 0.0156994
2652.5 0.0154643
2655.37 0.0151446
2658.23 0.0109034
2661.1 0.0154771
2663.96 0.0179301
2666.82 0.0144614
2669.69 0.0178547
2672.55 0.0211857
2675.42 0.0175054
2678.28 0.0178316
2681.15 0.0126978
2684.01 0.0116392
2686.88 0.0102723
2689.74 0.0163856
2692.61 0.0187732
2695.47 0.0166639
2698.33 0.0152617
2701.2 0.0157605
2704.06 0.01378
2706.93 0.0129916
2709.79 0.0196756
2712.66 0.0141744
2715.52 0.0181505
2718.39 0.013425
2721.25 0.0196764
2724.11 0.018946
2726.98 0.0205768
2729.84 0.0123997
2732.71 0.0147814
2735.57 0.0163316
2738.44 0.0130412
2741.3 0.0160473
2744.17 0.0162978
2747.03 0.0152955
2749.89 0.0142381
2752.76 0.0125994
2755.62 0.013874
2758.49 0.0182514
2761.35 0.018781
2764.22 0.0165509
2767.08 0.0173094
2769.95 0.0196296
2772.81 0.0220887
2775.68 0.0178727
2778.54 0.0140329
2781.4 0.019704
2784.27 0.0196834
2787.13 0.0182644
2790 0.0178204
2792.86 0.0206681
2795.73 0.0265481
2798.59 0.0192916
2801.46 0.0187947
2804.32 0.0273694
2807.18 0.024911
2810.05 0.0245759
2812.91 0.0327
2815.78 0.0321349
2818.64 0.0300635
2821.51 0.0286421
2824.37 0.0302154
2827.24 0.031544
2830.1 0.0421082
2832.96 0.0503399
2835.83 0.0525127
2838.69 0.0564787
2841.56 0.0613025
2844.42 0.0642965
2847.29 0.0783374
2850.15 0.0734056
2853.02 0.0721163
2855.88 0.062648
2858.74 0.0627919
2861.61 0.0601375
2864.47 0.0525407
2867.34 0.0554883
2870.2 0.0470286
2873.07 0.0509003
2875.93 0.052264
2878.8 0.0531368
2881.66 0.0544858
2884.53 0.0667652
2887.39 0.0702851
2890.25 0.0734359
2893.12 0.0751317
2895.98 0.0811134
2898.85 0.0840161
2901.71 0.0876636
2904.58 0.0919469
2907.44 0.0998169
2910.31 0.106148
2913.17 0.112918
2916.03 0.126637
2918.9 0.120265
2921.76 0.117068
2924.63 0.115574
2927.49 0.112773
2930.36 0.105544
2933.22 0.102253
2936.09 0.0908891
2938.95 0.0828466
2941.81 0.0805863
2944.68 0.0740183
2947.54 0.0692916
2950.41 0.0579328
2953.27 0.0563662
2956.14 0.0461408
2959 0.0469802
2961.87 0.048294
2964.73 0.0485325
2967.59 0.035583
2970.46 0.0291408
2973.32 0.0322095
2976.19 0.0338887
2979.05 0.0380542
2981.92 0.0347745
2984.78 0.0376001
2987.65 0.0296569
2990.51 0.0260348
2993.38 0.0258408
2996.24 0.033127
2999.1 0.0353706
3001.97 0.0379359
3004.83 0.0394764
3007.7 0.0351493
3010.56 0.0399573
