scanname 扫描247
timestamp 1/1/1970 00:10
ccdbias 1678.86
ccdgain 2.46132
sigmaread 11.4449
laserwavenum -0.407414
wavenumcorrection -0.680319
scancount 1
totalexposurems 3000
singleexposurems 3000
measurementstate Unknown
scanmode Identification
snr 9.21559 9.21559 9.21559
replacelist 0
peaks 31
254.449 0.0947611 0 0.568369 4.28457e-05
296.582 0.0955427 0 4.5327 0.000377838
356.333 0.0791424 0 1.43006 0.000168965
382.178 0.102968 0 6.62898 0.000547584
415.854 0.0922403 0 4.02053 0.000490044
456.022 0.0934577 0 4.63239 0.000393893
538.48 0.0637935 0 0.149993 1.02332e-05
587.443 0.085901 0 2.17085 0.000235726
643.888 0.0729446 0 0.926453 0.000172284
690.981 0.0711592 0 1.02289 0.000198403
737.076 0.0667919 0 0.514786 5.26611e-05
758.367 0.0724128 0 1.03423 0.000187726
777.478 0.0686786 0 0.864119 0.000174134
805.385 0.0995006 0 7.61991 0.00086366
834.344 0.126378 0 11.3129 0.0013079
945.663 0.0616061 0 0.358614 5.71263e-05
988.075 0.0563597 0 0.180323 1.27914e-05
1137.18 0.061704 0 0.710425 0.000227619
1164.4 0.0594785 0 0.54905 0.000212803
1195.95 0.0848862 0 2.67358 0.000519561
1253.44 0.0775698 0 2.71428 0.000576564
1348.82 0.187697 0 4.85929 0.00134002
1358.05 0.231458 0 8.58531 0.00211759
1382.6 0.0894845 0 0.527941 0.000279269
1385.68 0.0928027 0 0.581285 4.40565e-05
1474.16 0.0562776 0 0.262439 8.79012e-05
1539.49 0.0926619 0 0.790758 0.000478185
1568.07 0.074115 0 1.72587 0.000593206
1606.81 0.103687 0 3.85819 0.00110088
2329.33 0.0368652 0 0.0408512 8.21484e-05
2877.8 0.130411 0 0.325428 0.00488791
finalresult No match found 1A5911	6.64316e-24
spectrum 2048
-91.3765 0.00581184
-88.7785 0.00694304
-86.1821 0.896382
-83.5876 0.834895
-80.9946 0.865423
-78.4035 0.966123
-75.814 0.970059
-73.2261 1.0663
-70.6401 1.02962
-68.0557 1.10818
-65.473 1.23843
-62.892 1.21232
-60.3128 1.334
-57.7351 1.44272
-55.1592 1.46745
-52.585 1.48516
-50.0125 1.54522
-47.4418 1.50012
-44.8726 1.65918
-42.3052 1.64253
-39.7394 1.6959
-37.1753 1.80076
-34.613 1.87388
-32.0522 1.85103
-29.4932 1.89469
-26.9358 1.98326
-24.3803 1.98474
-21.8263 2.03505
-19.2739 2.12796
-16.7233 2.20198
-14.1743 2.35944
-11.6271 2.58115
-9.08144 1.14239
-6.53759 0.425986
-3.99531 0.161976
-1.45465 0.131978
1.08418 0.132303
3.62153 0.133138
6.15703 0.142116
8.69097 0.394432
11.2232 1.05744
13.7538 1.38092
16.2828 1.62998
18.81 1.69832
21.3356 1.52035
23.8596 1.51736
26.3819 1.50352
28.9026 1.52808
31.4216 1.58613
33.9389 1.59738
36.4546 1.54554
38.9687 1.55703
41.481 1.42377
43.9918 1.39957
46.5009 1.35161
49.0084 1.29176
51.5142 1.23412
54.0183 1.18172
56.5209 1.1536
59.0218 1.04216
61.521 1.02538
64.0186 1.0117
66.5146 0.935288
69.009 0.910278
71.5017 0.960536
73.9927 0.85579
76.4821 0.813109
78.97 0.903538
81.4561 0.862148
83.9407 0.861551
86.4236 0.819549
88.9049 0.818422
91.3846 0.794122
93.8626 0.712825
96.3391 0.719566
98.8138 0.652127
101.287 0.766821
103.758 0.541536
106.228 0.575233
108.697 0.610524
111.163 0.518683
113.628 0.471075
116.092 0.444448
118.554 0.405175
121.014 0.31301
123.473 0.278417
125.93 0.278726
128.385 0.253061
130.839 0.234455
133.291 0.22201
135.742 0.203991
138.191 0.181551
140.638 0.166115
143.084 0.153091
145.528 0.14627
147.971 0.131578
150.412 0.126571
152.851 0.118596
155.289 0.117518
157.726 0.11529
160.16 0.11643
162.593 0.121788
165.025 0.13459
167.455 0.15198
169.883 0.181493
172.31 0.225623
174.735 0.263513
177.158 0.267112
179.58 0.238842
182.001 0.194221
184.419 0.154364
186.837 0.133049
189.252 0.120066
191.666 0.113538
194.079 0.106075
196.49 0.10204
198.899 0.0960868
201.307 0.0894205
203.713 0.085656
206.118 0.0842461
208.521 0.083203
210.922 0.0795202
213.322 0.0809617
215.721 0.080095
218.117 0.0807795
220.513 0.0775583
222.906 0.0764448
225.298 0.0799618
227.689 0.0799555
230.078 0.0798495
232.465 0.0785902
234.851 0.0772367
237.235 0.0798706
239.618 0.0807114
241.999 0.0824137
244.379 0.088847
246.757 0.0896463
249.134 0.0923873
251.509 0.0939146
253.882 0.0964485
256.254 0.0951345
258.625 0.0933296
260.994 0.0897401
263.361 0.0915674
265.727 0.0890058
268.091 0.0882942
270.453 0.0869256
272.815 0.0789386
275.174 0.0753112
277.532 0.0741941
279.889 0.0737142
282.244 0.0727573
284.597 0.072148
286.949 0.0729487
289.3 0.0765377
291.648 0.0844026
293.996 0.092873
296.342 0.0970104
298.686 0.0942094
301.029 0.0870181
303.37 0.0784107
305.71 0.0732668
308.048 0.071754
310.385 0.0705033
312.72 0.0669639
315.053 0.0678475
317.385 0.068341
319.716 0.0696608
322.045 0.0685362
324.373 0.0689179
326.699 0.0678965
329.023 0.0705516
331.347 0.0721254
333.668 0.0744907
335.988 0.070914
338.307 0.0728944
340.624 0.068857
342.939 0.0703692
345.253 0.0687875
347.566 0.0688836
349.877 0.0735689
352.186 0.0738278
354.494 0.0785634
356.801 0.0797369
359.106 0.0780549
361.409 0.0757379
363.711 0.0690993
366.012 0.068114
368.311 0.0677891
370.609 0.068687
372.905 0.0718251
375.199 0.0772143
377.492 0.0889028
379.784 0.100038
382.074 0.104976
384.363 0.0997566
386.65 0.0910536
388.935 0.0784278
391.22 0.0711616
393.502 0.0693214
395.784 0.0696205
398.063 0.0684853
400.342 0.07318
402.619 0.0714751
404.894 0.0715608
407.168 0.0693182
409.44 0.0714043
411.711 0.083427
413.981 0.092542
416.248 0.0927401
418.515 0.08913
420.78 0.0758986
423.044 0.0694784
425.306 0.0641096
427.566 0.0633842
429.826 0.0632223
432.083 0.0628645
434.34 0.0620734
436.594 0.0634443
438.848 0.0635491
441.1 0.0654509
443.35 0.0669091
445.599 0.0694029
447.847 0.0733246
450.093 0.0791491
452.337 0.0876701
454.58 0.093989
456.822 0.0947939
459.062 0.088358
461.301 0.080228
463.539 0.0728722
465.775 0.0674246
468.009 0.0665667
470.242 0.0631482
472.474 0.062296
474.704 0.0607512
476.933 0.0617886
479.16 0.0608578
481.386 0.0613008
483.61 0.0623825
485.833 0.0617587
488.055 0.0598044
490.275 0.0609845
492.494 0.0593672
494.711 0.059932
496.927 0.061301
499.141 0.0608123
501.354 0.0601246
503.565 0.0587655
505.776 0.0621113
507.984 0.0617344
510.192 0.0597427
512.397 0.0591819
514.602 0.06192
516.805 0.0601646
519.006 0.0606948
521.207 0.0605522
523.405 0.0596597
525.603 0.0624796
527.799 0.0623091
529.993 0.066451
532.186 0.064442
534.378 0.0638737
536.568 0.0641264
538.757 0.0608815
540.944 0.0631106
543.13 0.0624493
545.315 0.0637531
547.498 0.0632247
549.68 0.0627743
551.86 0.0624395
554.04 0.0614051
556.217 0.0605545
558.393 0.0637361
560.568 0.0622059
562.742 0.0618387
564.914 0.063394
567.084 0.0615664
569.253 0.0640168
571.421 0.0653323
573.588 0.0625513
575.753 0.0665755
577.916 0.0690522
580.079 0.0729512
582.24 0.0783699
584.399 0.0860653
586.557 0.0864121
588.714 0.0834159
590.869 0.0826391
593.023 0.079435
595.176 0.0741293
597.327 0.0732514
599.477 0.0705233
601.625 0.0660891
603.772 0.0645324
605.918 0.0648278
608.062 0.0633446
610.205 0.062737
612.347 0.0631949
614.487 0.061601
616.626 0.0616552
618.763 0.0633709
620.899 0.0614384
623.034 0.0625181
625.167 0.063363
627.299 0.0610771
629.43 0.0600106
631.559 0.0615402
633.687 0.0620749
635.813 0.0644668
637.938 0.0673836
640.062 0.0690721
642.184 0.0725853
644.305 0.0747032
646.425 0.0710572
648.544 0.0683611
650.661 0.0655515
652.776 0.0635545
654.89 0.0643633
657.003 0.0613025
659.115 0.0620129
661.225 0.0612945
663.334 0.062364
665.441 0.0635549
667.548 0.0638134
669.652 0.0651158
671.756 0.0639314
673.858 0.061077
675.959 0.0627428
678.058 0.0626746
680.156 0.0608215
682.253 0.0591758
684.349 0.0617222
686.443 0.0681983
688.535 0.0693023
690.627 0.0726651
692.717 0.0694521
694.806 0.06722
696.893 0.0650959
698.979 0.0635156
701.064 0.0647578
703.147 0.0623279
705.229 0.0632974
707.31 0.0627355
709.39 0.0616576
711.468 0.0616466
713.544 0.0614353
715.62 0.0631206
717.694 0.0630716
719.767 0.0620287
721.838 0.0627875
723.908 0.0630334
725.977 0.062087
728.045 0.0609106
730.111 0.0643516
732.176 0.0639031
734.239 0.0652784
736.302 0.0690349
738.363 0.0657123
740.422 0.068886
742.481 0.064507
744.538 0.0633456
746.593 0.0617211
748.648 0.0655695
750.701 0.0637142
752.753 0.0668274
754.803 0.0695737
756.852 0.0712956
758.9 0.0731469
760.946 0.0725329
762.992 0.0663414
765.036 0.0647721
767.078 0.0618127
769.12 0.061194
771.16 0.0612333
773.198 0.0667196
775.236 0.0672868
777.272 0.0680131
779.307 0.0682992
781.341 0.0665358
783.373 0.0624069
785.404 0.0611273
787.434 0.0625419
789.462 0.0604825
791.489 0.063474
793.515 0.0627536
795.539 0.0626296
797.563 0.0668823
799.585 0.0691386
801.605 0.0868735
803.625 0.100301
805.643 0.100083
807.66 0.0949014
809.675 0.0773755
811.69 0.0690054
813.703 0.0631878
815.714 0.0625504
817.725 0.0627833
819.734 0.0628371
821.742 0.0667365
823.749 0.0651587
825.754 0.067782
827.758 0.0737562
829.761 0.0925005
831.763 0.11606
833.763 0.129014
835.762 0.126777
837.76 0.109726
839.756 0.0872652
841.751 0.0737441
843.745 0.0684492
845.738 0.0663304
847.729 0.0643051
849.72 0.0670004
851.709 0.0717616
853.696 0.0699833
855.683 0.0676695
857.668 0.0676458
859.652 0.0645634
861.634 0.0621209
863.616 0.0631765
865.596 0.0635424
867.575 0.0634786
869.552 0.0647707
871.529 0.0624387
873.504 0.0614735
875.478 0.0612617
877.45 0.0609839
879.422 0.0584261
881.392 0.0618677
883.361 0.0590391
885.329 0.0615299
887.295 0.0629531
889.26 0.0597312
891.224 0.0627066
893.187 0.0606248
895.148 0.059243
897.108 0.0627659
899.067 0.0591263
901.025 0.0599956
902.982 0.0610726
904.937 0.061716
906.891 0.0589332
908.844 0.0613966
910.795 0.0605634
912.746 0.0634834
914.695 0.0612896
916.643 0.0613983
918.589 0.0583284
920.535 0.0570568
922.479 0.0600545
924.422 0.0570903
926.364 0.0583419
928.304 0.0595144
930.244 0.0553486
932.182 0.0558197
934.119 0.0568191
936.054 0.0603115
937.989 0.0584098
939.922 0.0583895
941.854 0.061436
943.785 0.0616045
945.714 0.0621065
947.643 0.0631293
949.57 0.0601282
951.496 0.0592712
953.42 0.0559113
955.344 0.0562903
957.266 0.05519
959.187 0.0550365
961.107 0.0554714
963.026 0.0550153
964.943 0.0564253
966.86 0.0547123
968.775 0.0572641
970.689 0.0541761
972.601 0.0540456
974.513 0.0509324
976.423 0.0558124
978.332 0.0558806
980.24 0.0562856
982.147 0.0561197
984.052 0.0555193
985.956 0.0577502
987.859 0.0564948
989.761 0.0563809
991.662 0.0559092
993.561 0.0562762
995.46 0.0533265
997.357 0.0538664
999.253 0.056262
1001.15 0.0528513
1003.04 0.0559123
1004.93 0.0528576
1006.82 0.0513216
1008.71 0.055217
1010.6 0.0520756
1012.49 0.0538925
1014.38 0.0530655
1016.26 0.0535737
1018.15 0.0524699
1020.03 0.0502083
1021.91 0.0573179
1023.79 0.0528183
1025.67 0.0549731
1027.55 0.0538275
1029.43 0.0535419
1031.3 0.0533496
1033.18 0.0548943
1035.05 0.0546928
1036.92 0.0552043
1038.79 0.0532948
1040.66 0.0542313
1042.53 0.0528651
1044.4 0.0521158
1046.27 0.0536286
1048.13 0.0556686
1050 0.0536954
1051.86 0.0513065
1053.72 0.0521958
1055.58 0.0522763
1057.44 0.0537698
1059.3 0.0535627
1061.16 0.050226
1063.01 0.0525056
1064.87 0.0528836
1066.72 0.0538075
1068.57 0.051246
1070.43 0.0513727
1072.28 0.0500723
1074.13 0.0496011
1075.97 0.0531164
1077.82 0.0510024
1079.67 0.0526847
1081.51 0.0524241
1083.35 0.0525515
1085.2 0.051908
1087.04 0.0521632
1088.88 0.0512972
1090.72 0.0505425
1092.55 0.0565079
1094.39 0.051353
1096.22 0.0523102
1098.06 0.0517348
1099.89 0.0510449
1101.72 0.05099
1103.55 0.0495495
1105.38 0.0496955
1107.21 0.0495877
1109.04 0.0502227
1110.87 0.0483291
1112.69 0.0534789
1114.51 0.0485957
1116.34 0.0517864
1118.16 0.0519087
1119.98 0.0527368
1121.8 0.0510306
1123.62 0.050518
1125.43 0.0502938
1127.25 0.0533238
1129.07 0.052402
1130.88 0.0570633
1132.69 0.0565019
1134.5 0.0607802
1136.31 0.0624922
1138.12 0.060821
1139.93 0.0584603
1141.74 0.0583798
1143.54 0.0522258
1145.35 0.0507803
1147.15 0.050914
1148.95 0.0527695
1150.76 0.0515956
1152.56 0.0527459
1154.36 0.0518349
1156.15 0.0513272
1157.95 0.0543707
1159.75 0.0543468
1161.54 0.0586051
1163.33 0.0583054
1165.13 0.0619077
1166.92 0.0554412
1168.71 0.0558605
1170.5 0.0519572
1172.29 0.051412
1174.07 0.0548224
1175.86 0.0488642
1177.64 0.0517136
1179.43 0.0501553
1181.21 0.0554389
1182.99 0.0566778
1184.77 0.0567871
1186.55 0.0611112
1188.33 0.0659941
1190.11 0.0678842
1191.88 0.0757881
1193.66 0.0811158
1195.43 0.0842152
1197.2 0.0860059
1198.97 0.0801774
1200.74 0.0723519
1202.51 0.0657877
1204.28 0.0604619
1206.05 0.0549104
1207.82 0.0523053
1209.58 0.0552226
1211.34 0.0557407
1213.11 0.0531769
1214.87 0.0532723
1216.63 0.0512853
1218.39 0.0501824
1220.15 0.0500264
1221.91 0.0500926
1223.66 0.0521924
1225.42 0.0501055
1227.17 0.0489783
1228.92 0.0501456
1230.68 0.0496148
1232.43 0.0496252
1234.18 0.0500574
1235.92 0.0501327
1237.67 0.0519119
1239.42 0.0529922
1241.16 0.0537227
1242.91 0.0528198
1244.65 0.0528403
1246.39 0.0558373
1248.14 0.0623468
1249.88 0.0684479
1251.62 0.0745068
1253.35 0.0816726
1255.09 0.0740342
1256.83 0.0703559
1258.56 0.062896
1260.29 0.0589769
1262.03 0.0514311
1263.76 0.0551191
1265.49 0.0540091
1267.22 0.0514739
1268.95 0.0530785
1270.67 0.0507173
1272.4 0.0536975
1274.13 0.0520778
1275.85 0.0518428
1277.57 0.0528371
1279.29 0.0531298
1281.02 0.0520559
1282.74 0.0521617
1284.45 0.0536616
1286.17 0.0526877
1287.89 0.0555642
1289.6 0.0538634
1291.32 0.0569373
1293.03 0.05399
1294.75 0.0576746
1296.46 0.0533033
1298.17 0.0580132
1299.88 0.0558399
1301.58 0.0550783
1303.29 0.0591914
1305 0.0601082
1306.7 0.0597848
1308.41 0.0605998
1310.11 0.0638698
1311.81 0.0637315
1313.51 0.0627851
1315.21 0.0632974
1316.91 0.0647066
1318.61 0.0656997
1320.31 0.0682634
1322 0.0668814
1323.7 0.0710826
1325.39 0.0710962
1327.08 0.0710828
1328.78 0.0695791
1330.47 0.0708795
1332.16 0.0747233
1333.85 0.0743496
1335.53 0.0749513
1337.22 0.0782384
1338.9 0.0892009
1340.59 0.100541
1342.27 0.127085
1343.95 0.151578
1345.64 0.174351
1347.32 0.188743
1349 0.191019
1350.67 0.179476
1352.35 0.183578
1354.03 0.197991
1355.7 0.21666
1357.38 0.231901
1359.05 0.233665
1360.72 0.216578
1362.39 0.184152
1364.06 0.158651
1365.73 0.138675
1367.4 0.12053
1369.07 0.110559
1370.73 0.105321
1372.4 0.0957446
1374.06 0.0920107
1375.73 0.0894899
1377.39 0.087906
1379.05 0.0865339
1380.71 0.0883892
1382.37 0.0888314
1384.02 0.0873742
1385.68 0.0876158
1387.34 0.0858957
1388.99 0.0763495
1390.65 0.0744782
1392.3 0.068433
1393.95 0.0658707
1395.6 0.0656026
1397.25 0.0604016
1398.9 0.0621954
1400.55 0.0639016
1402.2 0.058801
1403.84 0.061608
1405.49 0.0605275
1407.13 0.058877
1408.77 0.0580358
1410.41 0.058955
1412.06 0.0581838
1413.7 0.054069
1415.33 0.0551162
1416.97 0.0547963
1418.61 0.0513328
1420.24 0.0551461
1421.88 0.0536716
1423.51 0.0554258
1425.15 0.0535939
1426.78 0.0516647
1428.41 0.0543491
1430.04 0.0555572
1431.67 0.0550271
1433.3 0.05776
1434.92 0.0561385
1436.55 0.0506818
1438.17 0.0541791
1439.8 0.0547497
1441.42 0.0546085
1443.04 0.0515237
1444.66 0.0557719
1446.28 0.0533487
1447.9 0.0540535
1449.52 0.052518
1451.14 0.0510251
1452.75 0.0542311
1454.37 0.0549431
1455.98 0.0521483
1457.6 0.0537045
1459.21 0.0525997
1460.82 0.0541383
1462.43 0.0512195
1464.04 0.0525948
1465.65 0.0525509
1467.26 0.053338
1468.86 0.0534833
1470.47 0.0537241
1472.07 0.0551697
1473.68 0.0559704
1475.28 0.0567555
1476.88 0.0573164
1478.48 0.0528276
1480.08 0.055565
1481.68 0.0503847
1483.28 0.0485037
1484.87 0.0518915
1486.47 0.0511986
1488.06 0.0519295
1489.66 0.049931
1491.25 0.0519363
1492.84 0.0505481
1494.43 0.0501149
1496.02 0.0506224
1497.61 0.0512826
1499.2 0.0492894
1500.79 0.0490694
1502.37 0.0489824
1503.96 0.0497627
1505.54 0.0521031
1507.12 0.0498103
1508.71 0.0528474
1510.29 0.0533922
1511.87 0.0496463
1513.45 0.0524924
1515.03 0.0510475
1516.6 0.0561924
1518.18 0.0533
1519.76 0.0525107
1521.33 0.0561674
1522.9 0.0542141
1524.48 0.0597054
1526.05 0.0595688
1527.62 0.0661411
1529.19 0.0706668
1530.76 0.0715789
1532.33 0.0792275
1533.89 0.0829287
1535.46 0.0856006
1537.03 0.0875383
1538.59 0.0942324
1540.15 0.0923799
1541.72 0.0906885
1543.28 0.0843672
1544.84 0.0796244
1546.4 0.0748962
1547.96 0.0755165
1549.51 0.0757775
1551.07 0.0734124
1552.63 0.0698453
1554.18 0.0670501
1555.73 0.0639998
1557.29 0.0589119
1558.84 0.0569364
1560.39 0.0583732
1561.94 0.0593862
1563.49 0.061431
1565.04 0.0682457
1566.59 0.0752573
1568.13 0.0714313
1569.68 0.0734823
1571.22 0.068123
1572.77 0.0611175
1574.31 0.0550925
1575.85 0.0516119
1577.39 0.0549802
1578.93 0.0528721
1580.47 0.0552793
1582.01 0.0503004
1583.55 0.0487879
1585.08 0.0526359
1586.62 0.052849
1588.15 0.0572225
1589.69 0.0564334
1591.22 0.0605939
1592.75 0.0586118
1594.28 0.0587602
1595.81 0.0597704
1597.34 0.0626239
1598.87 0.0638205
1600.4 0.0695325
1601.92 0.0831152
1603.45 0.0918961
1604.97 0.0969867
1606.49 0.106044
1608.02 0.103827
1609.54 0.0949363
1611.06 0.0806305
1612.58 0.0689565
1614.1 0.0641473
1615.62 0.05848
1617.13 0.0548515
1618.65 0.0509465
1620.16 0.0481763
1621.68 0.0476194
1623.19 0.0481231
1624.71 0.0428943
1626.22 0.0426905
1627.73 0.0454357
1629.24 0.0423972
1630.75 0.044053
1632.25 0.0449544
1633.76 0.0411061
1635.27 0.0475772
1636.77 0.0450354
1638.28 0.0412345
1639.78 0.0426797
1641.28 0.0455013
1642.79 0.0451527
1644.29 0.0476151
1645.79 0.0418513
1647.29 0.0439176
1648.78 0.0451567
1650.28 0.0425417
1651.78 0.0442278
1653.27 0.0416251
1654.77 0.042785
1656.26 0.0428123
1657.75 0.0406986
1659.25 0.0433113
1660.74 0.0403471
1662.23 0.0405731
1663.72 0.03835
1665.21 0.0407191
1666.69 0.0415689
1668.18 0.0431532
1669.66 0.0415313
1671.15 0.0417266
1672.63 0.0403082
1674.12 0.0403201
1675.6 0.0400305
1677.08 0.0408681
1678.56 0.0410277
1680.04 0.0443939
1681.52 0.0410785
1683 0.0394093
1684.47 0.0404443
1685.95 0.0422725
1687.42 0.0388111
1688.9 0.0405103
1690.37 0.0410185
1691.84 0.0386961
1693.32 0.0386436
1694.79 0.043513
1696.26 0.0405815
1697.73 0.0406421
1699.19 0.0425812
1700.66 0.0413595
1702.13 0.039505
1703.59 0.0423616
1705.06 0.0415893
1706.52 0.0428802
1707.98 0.0414269
1709.45 0.0432715
1710.91 0.041554
1712.37 0.0412305
1713.83 0.039222
1715.29 0.0435223
1716.74 0.0378318
1718.2 0.0403405
1719.66 0.0396922
1721.11 0.0394612
1722.57 0.0409421
1724.02 0.0404176
1725.47 0.0380771
1726.92 0.0401933
1728.37 0.0377485
1729.82 0.039826
1731.27 0.0378474
1732.72 0.0412391
1734.17 0.0415864
1735.62 0.0354914
1737.06 0.0363053
1738.51 0.0401434
1739.95 0.0384165
1741.39 0.0390052
1742.83 0.0397401
1744.28 0.0392524
1745.72 0.0400973
1747.16 0.038873
1748.59 0.0404045
1750.03 0.040552
1751.47 0.0395247
1752.91 0.0386213
1754.34 0.0396454
1755.78 0.0437799
1757.21 0.0364287
1758.64 0.0370465
1760.07 0.038152
1761.51 0.036978
1762.94 0.0390847
1764.37 0.0389398
1765.79 0.041074
1767.22 0.0410482
1768.65 0.0421169
1770.07 0.0382488
1771.5 0.0399503
1772.92 0.035966
1774.35 0.0401702
1775.77 0.0396491
1777.19 0.0428663
1778.61 0.0398992
1780.03 0.0394483
1781.45 0.0379523
1782.87 0.0379713
1784.29 0.0387146
1785.71 0.0389342
1787.12 0.0357716
1788.54 0.0391844
1789.95 0.0385622
1791.36 0.0372991
1792.78 0.0369504
1794.19 0.0394664
1795.6 0.0350153
1797.01 0.0395921
1798.42 0.0389398
1799.83 0.0396163
1801.24 0.0393221
1802.64 0.0397734
1804.05 0.0406495
1805.45 0.0387487
1806.86 0.0392722
1808.26 0.043593
1809.66 0.0395954
1811.07 0.0467003
1812.47 0.0401161
1813.87 0.0443646
1815.27 0.0387127
1816.66 0.0372274
1818.06 0.0433834
1819.46 0.0388427
1820.85 0.0377733
1822.25 0.0417638
1823.64 0.0414261
1825.04 0.0379598
1826.43 0.0403578
1827.82 0.0439601
1829.21 0.0405254
1830.6 0.0366793
1831.99 0.0399357
1833.38 0.0370496
1834.77 0.0434351
1836.16 0.0398203
1837.54 0.0367038
1838.93 0.0377674
1840.31 0.0405813
1841.7 0.0397808
1843.08 0.0390217
1844.46 0.0384681
1845.84 0.036046
1847.22 0.0372442
1848.6 0.0379302
1849.98 0.0379113
1851.36 0.0379655
1852.74 0.0350063
1854.11 0.0397435
1855.49 0.0353581
1856.86 0.0364917
1858.24 0.0361982
1859.61 0.0389705
1860.98 0.0359194
1862.35 0.0370689
1863.72 0.0345496
1865.09 0.0371516
1866.46 0.0373674
1867.83 0.0370632
1869.2 0.0374258
1870.57 0.0400487
1871.93 0.0323776
1873.3 0.0387244
1874.66 0.0400153
1876.03 0.0356976
1877.39 0.0385326
1878.75 0.0372818
1880.11 0.0391067
1881.47 0.0325512
1882.83 0.0342208
1884.19 0.0340831
1885.55 0.0352967
1886.9 0.035715
1888.26 0.0393423
