scanname 扫描052
timestamp 8/4/2000 21:04
ccdbias 1701.33
ccdgain 2.46132
sigmaread 11.4449
laserwavenum -0.280768
wavenumcorrection -0.553673
scancount 1
totalexposurems 3000
singleexposurems 3000
measurementstate Unknown
scanmode Identification
snr 8.17977 8.17977 8.17977
replacelist 0
peaks 47
278.479 0.572061 0 0.67156 0.000134619
296.45 0.552118 0 0.421219 2.02274e-05
308.146 0.549381 0 0.418212 4.88745e-05
351.188 0.546243 0 0.464776 7.51696e-05
359.684 0.548594 0 0.373858 3.38934e-05
388.993 0.567677 0 1.98012 0.000412122
394.748 0.548315 0 3.12452 0.000284679
404.476 0.534337 0 8.42036 0.00133515
427.783 0.576236 0 6.95198 0.00112376
438.47 0.595374 0 6.27082 0.000284616
447.274 0.601804 0 1.37428 0.000333407
459.945 0.606287 0 0.439788 5.36794e-05
474.37 0.632921 0 0.624274 0.000143169
483.118 0.632305 0 0.666716 3.66936e-05
492.96 0.641831 0 0.552641 0.000137683
501.265 0.632587 0 0.45279 3.09935e-05
515.252 0.6311 0 0.707538 0.000157947
542.06 0.630255 0 0.67897 0.000256415
558.9 0.623323 0 0.160017 1.66822e-05
596.418 0.670664 0 0.939402 0.000312136
615.051 0.648535 0 0.746115 3.61944e-05
626.446 0.653542 0 1.12857 0.00036211
710.977 0.589329 0 0.365666 9.0698e-05
763.233 0.580702 0 0.0712745 4.31072e-05
809.051 0.616366 0 1.95313 0.000580518
842.099 0.598894 0 1.62877 0.00053017
896.521 0.554878 0 0.190431 5.8555e-05
938.074 0.540842 0 0.125241 5.51261e-05
974.852 0.547887 0 0.263177 0.000158527
1001.75 0.664539 0 9.49832 0.00246807
1033.27 0.574877 0 0.972196 0.000454075
1063.49 0.556827 0 0.594858 0.000237343
1086.64 0.595176 0 4.24511 0.00132816
1154.03 0.561132 0 1.74772 0.000728252
1213.41 0.506953 0 0.199317 5.59784e-05
1300.84 0.550519 0 0.646326 0.000308811
1329.64 0.545319 0 0.738629 0.000553044
1359.95 0.496775 0 0.136238 0.000201252
1440.95 0.608111 0 1.50758 0.000913566
1455.91 0.622197 0 0.905212 0.000718237
1526.49 0.416671 0 0.123072 9.79783e-05
1550.95 0.41167 0 0.284587 0.000183967
1583.24 0.421065 0 0.229152 0.000267256
1602.63 0.443391 0 0.687827 0.000666503
1828.26 0.336626 0 0.0966498 6.21925e-05
2851.41 0.843122 0 0.263858 0.00366604
2883.79 1.01234 0 0.22349 0.00337443
finalresult No match found 1A11883	2.88859e-16
spectrum 2048
-91.5031 0.116003
-88.9051 0.112438
-86.3087 0.569562
-83.7142 0.772038
-81.1212 0.749232
-78.5301 0.721938
-75.9406 0.830051
-73.3527 0.82106
-70.7667 0.765994
-68.1823 0.877261
-65.5996 0.948469
-63.0186 0.932401
-60.4394 1.01813
-57.8617 1.00914
-55.2858 1.03339
-52.7116 1.14637
-50.1391 1.14458
-47.5684 1.15461
-44.9992 1.21208
-42.4318 1.20934
-39.866 1.27714
-37.3019 1.31852
-34.7396 1.35791
-32.1788 1.39467
-29.6198 1.45378
-27.0624 1.42663
-24.5069 1.45591
-21.9529 1.4839
-19.4005 1.55962
-16.8499 1.63503
-14.3009 1.73095
-11.7537 1.88629
-9.20809 1.14259
-6.66424 0.425844
-4.12196 0.162048
-1.5813 0.131915
0.957536 0.132381
3.49488 0.1332
6.03038 0.142003
8.56432 0.394363
11.0966 0.989191
13.6272 1.14828
16.1562 1.33378
18.6834 1.4386
21.209 1.37795
23.733 1.33798
26.2553 1.34221
28.776 1.35341
31.295 1.37784
33.8123 1.39596
36.328 1.42896
38.8421 1.41251
41.3544 1.36938
43.8652 1.4191
46.3743 1.41667
48.8818 1.43112
51.3876 1.45742
53.8917 1.50686
56.3943 1.52146
58.8952 1.4652
61.3944 1.52255
63.892 1.50028
66.388 1.39482
68.8824 1.37288
71.3751 1.34728
73.8661 1.26317
76.3555 1.17504
78.8434 1.10086
81.3295 0.986612
83.8141 1.01106
86.297 0.929655
88.7783 0.831048
91.258 0.807025
93.736 0.786999
96.2125 0.855263
98.6872 0.699782
101.161 0.770543
103.632 0.79652
106.102 0.736535
108.571 0.689904
111.037 0.736509
113.502 0.68842
115.966 0.755985
118.428 0.739914
120.888 0.75946
123.347 0.791786
125.804 0.770643
128.259 0.762164
130.713 0.792225
133.165 0.78419
135.616 0.766535
138.065 0.78032
140.512 0.780804
142.958 0.771373
145.402 0.764729
147.845 0.7445
150.286 0.747194
152.725 0.734908
155.163 0.737999
157.6 0.731815
160.034 0.735045
162.467 0.728543
164.899 0.730702
167.329 0.731904
169.757 0.735801
172.184 0.73565
174.609 0.728068
177.032 0.730108
179.454 0.731464
181.875 0.734056
184.293 0.737419
186.711 0.7431
189.126 0.739919
191.54 0.73446
193.953 0.691322
196.364 0.640005
198.773 0.60564
201.181 0.582943
203.587 0.569173
205.992 0.564025
208.395 0.561307
210.796 0.559585
213.196 0.561947
215.595 0.561167
217.991 0.559306
220.387 0.553538
222.78 0.551197
225.172 0.548788
227.563 0.548679
229.952 0.548431
232.339 0.547312
234.725 0.553939
237.109 0.558468
239.492 0.558669
241.873 0.560546
244.253 0.560479
246.631 0.560387
249.008 0.5639
251.383 0.570012
253.756 0.571547
256.128 0.570032
258.499 0.572955
260.868 0.569542
263.235 0.565049
265.601 0.56788
267.965 0.566114
270.327 0.564275
272.689 0.568105
275.048 0.567841
277.406 0.570634
279.763 0.571478
282.118 0.573542
284.471 0.567541
286.823 0.562684
289.174 0.555643
291.522 0.554568
293.87 0.552819
296.216 0.553458
298.56 0.55034
300.903 0.543418
303.244 0.552144
305.584 0.547622
307.922 0.551072
310.259 0.554785
312.594 0.539265
314.927 0.550931
317.259 0.545208
319.59 0.541621
321.919 0.539449
324.247 0.537383
326.573 0.532339
328.897 0.529184
331.221 0.528013
333.542 0.523913
335.862 0.526172
338.181 0.534563
340.498 0.539706
342.813 0.54078
345.127 0.538074
347.44 0.547079
349.751 0.548662
352.06 0.55048
354.368 0.538116
356.675 0.546436
358.98 0.54853
361.283 0.545192
363.585 0.549589
365.886 0.550665
368.185 0.555595
370.483 0.557761
372.779 0.556522
375.073 0.556209
377.366 0.556585
379.658 0.555463
381.948 0.559628
384.237 0.564285
386.524 0.566617
388.809 0.564319
391.094 0.56589
393.376 0.562934
395.658 0.551322
397.937 0.529187
400.216 0.518045
402.493 0.516141
404.768 0.526532
407.042 0.540992
409.314 0.513236
411.585 0.448077
413.855 0.42277
416.122 0.426301
418.389 0.465867
420.654 0.530368
422.918 0.550644
425.18 0.566672
427.44 0.570578
429.7 0.575619
431.957 0.575247
434.214 0.5717
436.468 0.574139
438.722 0.577777
440.974 0.586705
443.224 0.5979
445.473 0.60239
447.721 0.600652
449.967 0.597481
452.211 0.594945
454.454 0.601323
456.696 0.606354
458.936 0.60855
461.175 0.608045
463.413 0.612723
465.649 0.623868
467.883 0.632712
470.116 0.628294
472.348 0.629038
474.578 0.632774
476.807 0.631088
479.034 0.631876
481.26 0.625871
483.484 0.626086
485.707 0.638332
487.929 0.640288
490.149 0.640244
492.368 0.641576
494.585 0.639882
496.801 0.637764
499.015 0.638122
501.228 0.633102
503.439 0.627829
505.65 0.616311
507.858 0.625064
510.066 0.629693
512.271 0.629604
514.476 0.632556
516.679 0.628873
518.88 0.627566
521.081 0.627795
523.279 0.620553
525.477 0.61648
527.673 0.604403
529.867 0.598009
532.06 0.607136
534.252 0.608983
536.442 0.622371
538.631 0.633005
540.818 0.629843
543.004 0.624981
545.189 0.629948
547.372 0.629049
549.554 0.614313
551.734 0.607351
553.914 0.604696
556.091 0.613374
558.267 0.618295
560.442 0.62383
562.616 0.627972
564.788 0.628081
566.958 0.629934
569.127 0.629911
571.295 0.633726
573.462 0.634924
575.627 0.636793
577.79 0.640373
579.953 0.646224
582.114 0.643663
584.273 0.64579
586.431 0.648443
588.588 0.655159
590.743 0.66089
592.897 0.665826
595.05 0.6698
597.201 0.673794
599.351 0.665151
601.499 0.66257
603.646 0.654872
605.792 0.657021
607.936 0.663528
610.079 0.657961
612.221 0.658224
614.361 0.650056
616.5 0.642523
618.637 0.642577
620.773 0.642631
622.908 0.646711
625.041 0.654013
627.173 0.655634
629.304 0.648411
631.433 0.644311
633.561 0.635702
635.687 0.628359
637.812 0.62428
639.936 0.617386
642.058 0.615967
644.179 0.61293
646.299 0.615016
648.418 0.607902
650.535 0.606042
652.65 0.603269
654.764 0.598979
656.877 0.598153
658.989 0.594068
661.099 0.594476
663.208 0.59335
665.315 0.594177
667.422 0.591552
669.526 0.58814
671.63 0.589413
673.732 0.589144
675.833 0.590255
677.932 0.588648
680.03 0.587721
682.127 0.588485
684.223 0.586776
686.317 0.58146
688.409 0.582239
690.501 0.573779
692.591 0.576072
694.68 0.581744
696.767 0.57937
698.853 0.584219
700.938 0.580875
703.021 0.5846
705.103 0.586053
707.184 0.584765
709.264 0.588614
711.342 0.589638
713.418 0.591017
715.494 0.585027
717.568 0.587914
719.641 0.584984
721.712 0.575945
723.782 0.577075
725.851 0.574802
727.919 0.577845
729.985 0.576274
732.05 0.577043
734.113 0.574327
736.176 0.571709
738.237 0.574547
740.296 0.575087
742.355 0.576669
744.412 0.574403
746.467 0.577793
748.522 0.575573
750.575 0.578662
752.627 0.57836
754.677 0.578033
756.726 0.578197
758.774 0.577249
760.82 0.575272
762.866 0.582452
764.91 0.583735
766.952 0.577209
768.994 0.580077
771.034 0.582413
773.072 0.580038
775.11 0.570804
777.146 0.570975
779.181 0.574968
781.215 0.571129
783.247 0.570642
785.278 0.572811
787.308 0.573331
789.336 0.576508
791.363 0.582882
793.389 0.586819
795.413 0.575805
797.437 0.587462
799.459 0.588159
801.479 0.590089
803.499 0.600635
805.517 0.604942
807.534 0.6158
809.549 0.617408
811.564 0.613809
813.577 0.603512
815.588 0.591469
817.599 0.57941
819.608 0.582836
821.616 0.57591
823.623 0.57639
825.628 0.578534
827.632 0.572847
829.635 0.574217
831.637 0.574769
833.637 0.573352
835.636 0.581726
837.634 0.588035
839.63 0.59552
841.625 0.598999
843.619 0.599393
845.612 0.591595
847.603 0.580723
849.594 0.570464
851.583 0.572667
853.57 0.568686
855.557 0.566254
857.542 0.568266
859.526 0.564644
861.508 0.562001
863.49 0.565381
865.47 0.559762
867.449 0.562903
869.426 0.55161
871.403 0.556948
873.378 0.558286
875.352 0.553211
877.324 0.552204
879.296 0.548863
881.266 0.551335
883.235 0.547284
885.203 0.554841
887.169 0.548175
889.134 0.553589
891.098 0.553477
893.061 0.554164
895.022 0.554138
896.982 0.553423
898.941 0.557183
900.899 0.553899
902.856 0.552803
904.811 0.548336
906.765 0.546216
908.718 0.550889
910.669 0.541819
912.62 0.538651
914.569 0.539496
916.517 0.540043
918.463 0.539888
920.409 0.539466
922.353 0.536366
924.296 0.538296
926.238 0.533105
928.178 0.537447
930.118 0.537346
932.056 0.53567
933.993 0.539172
935.928 0.540964
937.863 0.541821
939.796 0.542289
941.728 0.537244
943.659 0.540917
945.588 0.536902
947.517 0.539026
949.444 0.532166
951.37 0.530408
953.294 0.532362
955.218 0.533826
957.14 0.534162
959.061 0.534097
960.981 0.533006
962.9 0.538933
964.817 0.537377
966.734 0.543899
968.649 0.539162
970.563 0.545973
972.475 0.550122
974.387 0.548755
976.297 0.549898
978.206 0.540126
980.114 0.543868
982.021 0.538244
983.926 0.53719
985.83 0.53682
987.733 0.537734
989.635 0.540779
991.536 0.544664
993.435 0.554134
995.334 0.570504
997.231 0.604239
999.127 0.640406
1001.02 0.670327
1002.91 0.667863
1004.8 0.639449
1006.69 0.601998
1008.58 0.570048
1010.47 0.544477
1012.36 0.536738
1014.25 0.533414
1016.13 0.531216
1018.02 0.532931
1019.9 0.526625
1021.78 0.537123
1023.66 0.545157
1025.54 0.550912
1027.42 0.560634
1029.3 0.566238
1031.17 0.571053
1033.05 0.578501
1034.92 0.569704
1036.79 0.573395
1038.66 0.559845
1040.53 0.55955
1042.4 0.549078
1044.27 0.547451
1046.14 0.54495
1048 0.541525
1049.87 0.540658
1051.73 0.54076
1053.59 0.542167
1055.45 0.543681
1057.31 0.544667
1059.17 0.55096
1061.03 0.558959
1062.88 0.555785
1064.74 0.554495
1066.59 0.556457
1068.44 0.55204
1070.3 0.544571
1072.15 0.548472
1074 0.548271
1075.84 0.546972
1077.69 0.546344
1079.54 0.548852
1081.38 0.55826
1083.22 0.578322
1085.07 0.59486
1086.91 0.594397
1088.75 0.589747
1090.59 0.571472
1092.42 0.55251
1094.26 0.540098
1096.09 0.53002
1097.93 0.527049
1099.76 0.524622
1101.59 0.526777
1103.42 0.521426
1105.25 0.521657
1107.08 0.515057
1108.91 0.520713
1110.74 0.510824
1112.56 0.510797
1114.38 0.505957
1116.21 0.512211
1118.03 0.510273
1119.85 0.512919
1121.67 0.503634
1123.49 0.508853
1125.3 0.513884
1127.12 0.512952
1128.94 0.515859
1130.75 0.511487
1132.56 0.510087
1134.37 0.512226
1136.18 0.513089
1137.99 0.513788
1139.8 0.514128
1141.61 0.522258
1143.41 0.520499
1145.22 0.52571
1147.02 0.535321
1148.82 0.541908
1150.63 0.552671
1152.43 0.556446
1154.23 0.564405
1156.02 0.558416
1157.82 0.549011
1159.62 0.538876
1161.41 0.537803
1163.2 0.528065
1165 0.529881
1166.79 0.523319
1168.58 0.524679
1170.37 0.525034
1172.16 0.523113
1173.94 0.518259
1175.73 0.520942
1177.51 0.516272
1179.3 0.520581
1181.08 0.524222
1182.86 0.519444
1184.64 0.515983
1186.42 0.519309
1188.2 0.513169
1189.98 0.510063
1191.75 0.509815
1193.53 0.510357
1195.3 0.5058
1197.07 0.510667
1198.84 0.510869
1200.61 0.506226
1202.38 0.506616
1204.15 0.50826
1205.92 0.510787
1207.69 0.508453
1209.45 0.506262
1211.21 0.504776
1212.98 0.502859
1214.74 0.502715
1216.5 0.508901
1218.26 0.508189
1220.02 0.506409
1221.78 0.503033
1223.53 0.503811
1225.29 0.497958
1227.04 0.495674
1228.79 0.495171
1230.55 0.485512
1232.3 0.489488
1234.05 0.490611
1235.79 0.488695
1237.54 0.48332
1239.29 0.487525
1241.03 0.486602
1242.78 0.483082
1244.52 0.489252
1246.26 0.488459
1248.01 0.483673
1249.75 0.487347
1251.49 0.486951
1253.22 0.490074
1254.96 0.48778
1256.7 0.490184
1258.43 0.48555
1260.16 0.492515
1261.9 0.488337
1263.63 0.487605
1265.36 0.491029
1267.09 0.488781
1268.82 0.49421
1270.54 0.496477
1272.27 0.495644
1274 0.492333
1275.72 0.496146
1277.44 0.502594
1279.16 0.497827
1280.89 0.50126
1282.61 0.500944
1284.32 0.501617
1286.04 0.505146
1287.76 0.509521
1289.47 0.515625
1291.19 0.517681
1292.9 0.536251
1294.62 0.537299
1296.33 0.54812
1298.04 0.547427
1299.75 0.549616
1301.45 0.544341
1303.16 0.550761
1304.87 0.547267
1306.57 0.547424
1308.28 0.54127
1309.98 0.542675
1311.68 0.538426
1313.38 0.528453
1315.08 0.532445
1316.78 0.532786
1318.48 0.529053
1320.18 0.526541
1321.87 0.52296
1323.57 0.528062
1325.26 0.535403
1326.95 0.542765
1328.65 0.538963
1330.34 0.548246
1332.03 0.542655
1333.72 0.537429
1335.4 0.525623
1337.09 0.517694
1338.77 0.506402
1340.46 0.507713
1342.14 0.495599
1343.82 0.490205
1345.51 0.482782
1347.19 0.481885
1348.87 0.478288
1350.54 0.484315
1352.22 0.49235
1353.9 0.490943
1355.57 0.491348
1357.25 0.49201
1358.92 0.499114
1360.59 0.500065
1362.26 0.495752
1363.93 0.487458
1365.6 0.494778
1367.27 0.485037
1368.94 0.484501
1370.6 0.475543
1372.27 0.480265
1373.93 0.474266
1375.6 0.471454
1377.26 0.46677
1378.92 0.47058
1380.58 0.467494
1382.24 0.467755
1383.89 0.458324
1385.55 0.459252
1387.21 0.461864
1388.86 0.449706
1390.52 0.450126
1392.17 0.4529
1393.82 0.447631
1395.47 0.446473
1397.12 0.451034
1398.77 0.448242
1400.42 0.447798
1402.07 0.449894
1403.71 0.450009
1405.36 0.444059
1407 0.446443
1408.64 0.448124
1410.28 0.448019
1411.93 0.451239
1413.57 0.451131
1415.2 0.454971
1416.84 0.455569
1418.48 0.455436
1420.11 0.451083
1421.75 0.461826
1423.38 0.462156
1425.02 0.466216
1426.65 0.4807
1428.28 0.486162
1429.91 0.504748
1431.54 0.527321
1433.17 0.55126
1434.79 0.576322
1436.42 0.58929
1438.04 0.600669
1439.67 0.603619
1441.29 0.609747
1442.91 0.606962
1444.53 0.614651
1446.15 0.617121
1447.77 0.613102
1449.39 0.620099
1451.01 0.619707
1452.62 0.622373
1454.24 0.620637
1455.85 0.622936
1457.47 0.619351
1459.08 0.611076
1460.69 0.609996
1462.3 0.593965
1463.91 0.574524
1465.52 0.5649
1467.13 0.54466
1468.73 0.525882
1470.34 0.508275
1471.94 0.486613
1473.55 0.485218
1475.15 0.471645
1476.75 0.464446
1478.35 0.454514
1479.95 0.451444
1481.55 0.446936
1483.15 0.451349
1484.74 0.441872
1486.34 0.440531
1487.93 0.44014
1489.53 0.436323
1491.12 0.435283
1492.71 0.43153
1494.3 0.432267
1495.89 0.431788
1497.48 0.431386
1499.07 0.428146
1500.66 0.429427
1502.24 0.428882
1503.83 0.420676
1505.41 0.420831
1506.99 0.428688
1508.58 0.420067
1510.16 0.421706
1511.74 0.421484
1513.32 0.422282
1514.9 0.424787
1516.47 0.417066
1518.05 0.420718
1519.63 0.422167
1521.2 0.41523
1522.77 0.417368
1524.35 0.412074
1525.92 0.420037
1527.49 0.409291
1529.06 0.415827
1530.63 0.419618
1532.2 0.413058
1533.76 0.411507
1535.33 0.411265
1536.9 0.407503
1538.46 0.399542
1540.02 0.398738
1541.59 0.399483
1543.15 0.393955
1544.71 0.404858
1546.27 0.408245
1547.83 0.411702
1549.38 0.411003
1550.94 0.4158
1552.5 0.407177
1554.05 0.409059
1555.6 0.407897
1557.16 0.405191
1558.71 0.408867
1560.26 0.408843
1561.81 0.403509
1563.36 0.409242
1564.91 0.40684
1566.46 0.408562
1568 0.407702
1569.55 0.409704
1571.09 0.407412
1572.64 0.406112
1574.18 0.407685
1575.72 0.407146
1577.26 0.41104
1578.8 0.410948
1580.34 0.423268
1581.88 0.421224
1583.42 0.42264
1584.95 0.416855
1586.49 0.418497
1588.02 0.415581
1589.56 0.412818
1591.09 0.411571
1592.62 0.416983
1594.15 0.418451
1595.68 0.42102
1597.21 0.423442
1598.74 0.434451
1600.27 0.439645
1601.79 0.441011
1603.32 0.443138
1604.84 0.442382
1606.36 0.432975
1607.89 0.42768
1609.41 0.418145
1610.93 0.412965
1612.45 0.405624
1613.97 0.408911
1615.49 0.397951
1617 0.401148
1618.52 0.398108
1620.03 0.400826
1621.55 0.399231
1623.06 0.394589
1624.58 0.395113
1626.09 0.389841
1627.6 0.39227
1629.11 0.394496
1630.62 0.392115
1632.12 0.387962
1633.63 0.384693
1635.14 0.380981
1636.64 0.38769
1638.15 0.383234
1639.65 0.382844
1641.15 0.377953
1642.66 0.384607
1644.16 0.38469
1645.66 0.383292
1647.16 0.392769
1648.65 0.383095
1650.15 0.375964
1651.65 0.382939
1653.14 0.3784
1654.64 0.379322
1656.13 0.380765
1657.62 0.379528
1659.12 0.376951
1660.61 0.374712
1662.1 0.375937
1663.59 0.376064
1665.08 0.373024
1666.56 0.371257
1668.05 0.373037
1669.53 0.374261
1671.02 0.375459
1672.5 0.374359
1673.99 0.370474
1675.47 0.361209
1676.95 0.372787
1678.43 0.368257
1679.91 0.366654
1681.39 0.364327
1682.87 0.369142
1684.34 0.37065
1685.82 0.371365
1687.29 0.356138
1688.77 0.364349
1690.24 0.358763
1691.71 0.365039
1693.19 0.362538
1694.66 0.36327
1696.13 0.363631
1697.6 0.358431
1699.06 0.364986
1700.53 0.3632
1702 0.366566
1703.46 0.360554
1704.93 0.370246
1706.39 0.361938
1707.85 0.364882
1709.32 0.361111
1710.78 0.361766
1712.24 0.365762
1713.7 0.355188
1715.16 0.364232
1716.61 0.36379
1718.07 0.354946
1719.53 0.363854
1720.98 0.360328
1722.44 0.357507
1723.89 0.358664
1725.34 0.355452
1726.79 0.356662
1728.24 0.355983
1729.69 0.356819
1731.14 0.356112
1732.59 0.352329
1734.04 0.354426
1735.49 0.357091
1736.93 0.355981
1738.38 0.351849
1739.82 0.352945
1741.26 0.351076
1742.7 0.356565
1744.15 0.350789
1745.59 0.348846
1747.03 0.352636
1748.46 0.349438
1749.9 0.351189
1751.34 0.351015
1752.78 0.350379
1754.21 0.344418
1755.65 0.347879
1757.08 0.345335
1758.51 0.350284
1759.94 0.340821
1761.38 0.347617
1762.81 0.346925
1764.24 0.344497
1765.66 0.345081
1767.09 0.350814
1768.52 0.341531
1769.94 0.347394
1771.37 0.341629
1772.79 0.33749
1774.22 0.33897
1775.64 0.339163
1777.06 0.337727
1778.48 0.341484
1779.9 0.332307
1781.32 0.336694
1782.74 0.337259
1784.16 0.331939
1785.58 0.33541
1786.99 0.332999
1788.41 0.331443
1789.82 0.330902
1791.23 0.336928
1792.65 0.333049
1794.06 0.328566
1795.47 0.335307
1796.88 0.337763
1798.29 0.335786
1799.7 0.338408
1801.11 0.336997
1802.51 0.342743
1803.92 0.337551
1805.32 0.336253
1806.73 0.344161
1808.13 0.338028
1809.53 0.336577
1810.94 0.336735
1812.34 0.337617
1813.74 0.335958
1815.14 0.336203
1816.53 0.338024
1817.93 0.336333
1819.33 0.337749
1820.72 0.334839
1822.12 0.327091
1823.51 0.343033
1824.91 0.335873
1826.3 0.336045
1827.69 0.33507
1829.08 0.333937
1830.47 0.3378
1831.86 0.336755
1833.25 0.331882
1834.64 0.336931
1836.03 0.333682
1837.41 0.331586
1838.8 0.330687
1840.18 0.326783
1841.57 0.323273
1842.95 0.324697
1844.33 0.326024
1845.71 0.324183
1847.09 0.328219
1848.47 0.321162
1849.85 0.321099
1851.23 0.32086
1852.61 0.322451
1853.98 0.320156
1855.36 0.326173
1856.73 0.323419
1858.11 0.325683
1859.48 0.321086
1860.85 0.322059
1862.22 0.319617
1863.59 0.321261
1864.96 0.313033
1866.33 0.318266
1867.7 0.318227
1869.07 0.321434
1870.44 0.319268
1871.8 0.316141
1873.17 0.318829
1874.53 0.316853
1875.9 0.31596
1877.26 0.317655
1878.62 0.306231
1879.98 0.315664
1881.34 0.307146
1882.7 0.310707
1884.06 0.3162
1885.42 0.303082
1886.77 0.308628
1888.13 0.312514
1889.49 0.309996
1890.84 0.306872
1892.19 0.307614
1893.55 0.30646
1894.9 0.301755
1896.25 0.305788
1897.6 0.31124
1898.95 0.30585
1900.3 0.30958
1901.65 0.311029
1903 0.305814
1904.34 0.309724
1905.69 0.305495
1907.03 0.307445
1908.38 0.311455
1909.72 0.315662
1911.07 0.305694
1912.41 0.312274
