scanname 扫描054
timestamp 8/4/2000 21:08
ccdbias 1696.17
ccdgain 2.46132
sigmaread 11.4449
laserwavenum -0.221113
wavenumcorrection -0.494018
scancount 1
totalexposurems 1000
singleexposurems 1000
measurementstate Unknown
scanmode Identification
snr 9.95146 9.95146 9.95146
replacelist 0
peaks 18
413.711 0.170727 0 0.716074 8.25582e-05
620.491 0.167371 0 4.2483 0.000457758
746.622 0.133875 0 0.478286 5.26877e-05
909.526 0.112263 0 0.0408829 1.2012e-05
1002.2 0.260729 0 18.3023 0.00258099
1031.97 0.15257 0 4.27843 0.000631228
1094.95 0.110846 0 0.205724 2.56334e-05
1157.93 0.116849 0 1.21741 0.000295993
1185.87 0.127489 0 0.998258 0.000277594
1198.29 0.128935 0 0.686985 0.000144305
1306.5 0.107621 0 0.171239 2.98034e-05
1450.73 0.106718 0 0.76238 0.000196248
1583.2 0.093871 0 1.10401 0.000416768
1602.77 0.122079 0 2.76333 0.000793568
1668.43 0.0809247 0 0.342721 0.000286393
1802.59 0.0608284 0 0.197177 3.56299e-05
2239.06 0.108114 0 0.948639 0.00103073
2878.33 0.114436 0 0.155145 0.00101215
finalresult Mixture 2A1	0.944354
A13496	0.0126453
spectrum 2048
-91.5628 0.0168504
-88.9648 0.016703
-86.3684 0.27122
-83.7739 0.274654
-81.1809 0.275119
-78.5898 0.277362
-76.0003 0.283767
-73.4124 0.302939
-70.8264 0.338305
-68.242 0.301053
-65.6593 0.355261
-63.0783 0.333712
-60.4991 0.361559
-57.9214 0.385293
-55.3455 0.352254
-52.7713 0.408125
-50.1988 0.45651
-47.6281 0.443567
-45.0589 0.450977
-42.4915 0.43737
-39.9257 0.486817
-37.3616 0.513324
-34.7993 0.515544
-32.2385 0.534675
-29.6795 0.513857
-27.1221 0.555779
-24.5666 0.556199
-22.0126 0.587322
-19.4602 0.604335
-16.9096 0.628775
-14.3606 0.678412
-11.8134 0.747046
-9.26774 0.804333
-6.72389 0.430056
-4.18161 0.163435
-1.64095 0.133153
0.897881 0.133716
3.43523 0.1343
5.97073 0.143399
8.50467 0.398727
11.0369 0.35212
13.5675 0.415617
16.0965 0.493999
18.6237 0.556312
21.1493 0.504552
23.6733 0.489211
26.1956 0.489945
28.7163 0.504432
31.2353 0.505791
33.7526 0.524164
36.2683 0.510388
38.7824 0.514767
41.2947 0.509638
43.8055 0.494125
46.3146 0.511148
48.8221 0.505902
51.3279 0.511629
53.832 0.553506
56.3346 0.535267
58.8355 0.536517
61.3347 0.532094
63.8323 0.524483
66.3283 0.513931
68.8227 0.49511
71.3154 0.483428
73.8064 0.498071
76.2958 0.453655
78.7837 0.450353
81.2698 0.379466
83.7544 0.356022
86.2373 0.358695
88.7186 0.272042
91.1983 0.266271
93.6763 0.29041
96.1528 0.302516
98.6275 0.264613
101.101 0.264293
103.572 0.285339
106.042 0.239581
108.511 0.245144
110.977 0.230766
113.442 0.265219
115.906 0.272595
118.368 0.311726
120.828 0.300379
123.287 0.319534
125.744 0.326041
128.199 0.319028
130.653 0.309929
133.105 0.302913
135.556 0.288795
138.005 0.2873
140.452 0.276055
142.898 0.262556
145.342 0.26328
147.785 0.258259
150.226 0.254723
152.665 0.24782
155.103 0.244554
157.54 0.243595
159.974 0.237516
162.407 0.236995
164.839 0.234793
167.269 0.232963
169.697 0.232179
172.124 0.227131
174.549 0.2257
176.972 0.227972
179.394 0.226816
181.815 0.228939
184.233 0.222721
186.651 0.226322
189.066 0.226889
191.48 0.223579
193.893 0.223514
196.304 0.221639
198.713 0.222046
201.121 0.21984
203.527 0.221048
205.932 0.220912
208.335 0.220538
210.736 0.218448
213.136 0.219918
215.535 0.214142
217.931 0.215042
220.327 0.209495
222.72 0.211616
225.112 0.209041
227.503 0.208561
229.892 0.204864
232.279 0.201964
234.665 0.2028
237.049 0.20097
239.432 0.199263
241.813 0.199775
244.193 0.195578
246.571 0.200106
248.948 0.194644
251.323 0.196561
253.696 0.195995
256.068 0.19703
258.439 0.196657
260.808 0.192843
263.175 0.194582
265.541 0.195451
267.905 0.191583
270.267 0.191616
272.629 0.190665
274.988 0.187892
277.346 0.185712
279.703 0.186152
282.058 0.18361
284.411 0.178272
286.763 0.180921
289.114 0.178085
291.462 0.179515
293.81 0.179957
296.156 0.180239
298.5 0.179924
300.843 0.174921
303.184 0.175924
305.524 0.175681
307.862 0.174205
310.199 0.173591
312.534 0.173251
314.867 0.171808
317.199 0.173947
319.53 0.17134
321.859 0.169207
324.187 0.169947
326.513 0.168654
328.837 0.168804
331.161 0.166574
333.482 0.169724
335.802 0.164937
338.121 0.168134
340.438 0.16333
342.753 0.163232
345.067 0.162441
347.38 0.162842
349.691 0.159851
352 0.163042
354.308 0.16076
356.615 0.160999
358.92 0.161987
361.223 0.159001
363.525 0.160092
365.826 0.161244
368.125 0.161701
370.423 0.160592
372.719 0.159961
375.013 0.161144
377.306 0.16003
379.598 0.160778
381.888 0.160549
384.177 0.1597
386.464 0.158725
388.749 0.158636
391.034 0.159568
393.316 0.162079
395.598 0.159693
397.877 0.163463
400.156 0.165384
402.433 0.164408
404.708 0.16556
406.982 0.165124
409.254 0.16781
411.525 0.170786
413.795 0.171516
416.062 0.172425
418.329 0.168863
420.594 0.163661
422.858 0.1653
425.12 0.164142
427.38 0.163428
429.64 0.163892
431.897 0.163484
434.154 0.161703
436.408 0.162954
438.662 0.16164
440.914 0.162855
443.164 0.16275
445.413 0.160511
447.661 0.160463
449.907 0.158832
452.151 0.158848
454.394 0.158329
456.636 0.159523
458.876 0.155804
461.115 0.154922
463.353 0.157017
465.589 0.151785
467.823 0.150528
470.056 0.152605
472.288 0.15115
474.518 0.150683
476.747 0.149658
478.974 0.145475
481.2 0.147007
483.424 0.148202
485.647 0.145125
487.869 0.146967
490.089 0.145483
492.308 0.145012
494.525 0.143842
496.741 0.147694
498.955 0.144716
501.168 0.143232
503.379 0.145587
505.59 0.144322
507.798 0.142938
510.006 0.143175
512.211 0.143371
514.416 0.140657
516.619 0.143352
518.82 0.145829
521.021 0.145051
523.219 0.143325
525.417 0.144387
527.613 0.143916
529.807 0.146045
532 0.144442
534.192 0.145545
536.382 0.144997
538.571 0.142499
540.758 0.143205
542.944 0.144973
545.129 0.145146
547.312 0.144796
549.494 0.144905
551.674 0.145481
553.854 0.143042
556.031 0.144571
558.207 0.145555
560.382 0.144335
562.556 0.14221
564.728 0.142406
566.898 0.14271
569.067 0.141855
571.235 0.138696
573.402 0.141143
575.567 0.141919
577.73 0.140019
579.893 0.139874
582.054 0.140166
584.213 0.139957
586.371 0.137904
588.528 0.137763
590.683 0.138997
592.837 0.141494
594.99 0.141101
597.141 0.141347
599.291 0.13986
601.439 0.140877
603.586 0.139985
605.732 0.13948
607.876 0.142522
610.019 0.142495
612.161 0.143102
614.301 0.151219
616.44 0.157092
618.577 0.166311
620.713 0.167897
622.848 0.166302
624.981 0.15658
627.113 0.147601
629.244 0.139686
631.373 0.137033
633.501 0.13635
635.627 0.135306
637.752 0.134197
639.876 0.133921
641.998 0.134121
644.119 0.132878
646.239 0.131645
648.358 0.129827
650.475 0.131023
652.59 0.125473
654.704 0.127874
656.817 0.1292
658.929 0.127757
661.039 0.128624
663.148 0.126322
665.255 0.126121
667.362 0.124601
669.466 0.125465
671.57 0.12684
673.672 0.126542
675.773 0.124222
677.872 0.123621
679.97 0.126456
682.067 0.127215
684.163 0.124814
686.257 0.126109
688.349 0.126995
690.441 0.127357
692.531 0.128511
694.62 0.123237
696.707 0.123754
698.793 0.123786
700.878 0.123568
702.961 0.123085
705.043 0.12444
707.124 0.122573
709.204 0.123831
711.282 0.123363
713.358 0.123205
715.434 0.120003
717.508 0.122849
719.581 0.122277
721.652 0.122699
723.722 0.120163
725.791 0.122464
727.859 0.124327
729.925 0.122462
731.99 0.122844
734.053 0.127252
736.116 0.126947
738.177 0.129027
740.236 0.129958
742.295 0.132197
744.352 0.135291
746.407 0.13474
748.462 0.135985
750.515 0.131964
752.567 0.130998
754.617 0.133301
756.666 0.134154
758.714 0.132237
760.76 0.129671
762.806 0.131795
764.85 0.129179
766.892 0.131781
768.934 0.129067
770.974 0.131283
773.012 0.127232
775.05 0.128128
777.086 0.126431
779.121 0.125152
781.155 0.123939
783.187 0.124645
785.218 0.125456
787.248 0.124787
789.276 0.125154
791.303 0.122883
793.329 0.125038
795.353 0.123566
797.377 0.121749
799.399 0.123085
801.419 0.122637
803.439 0.119543
805.457 0.122713
807.474 0.124417
809.489 0.123699
811.504 0.121079
813.517 0.120574
815.528 0.121978
817.539 0.122561
819.548 0.123549
821.556 0.121522
823.563 0.124227
825.568 0.121549
827.572 0.120982
829.575 0.119763
831.577 0.120338
833.577 0.119149
835.576 0.118838
837.574 0.118411
839.57 0.119783
841.565 0.119238
843.559 0.119691
845.552 0.118973
847.543 0.11779
849.534 0.120143
851.523 0.115136
853.51 0.115823
855.497 0.117334
857.482 0.114945
859.466 0.116639
861.448 0.115752
863.43 0.1131
865.41 0.116563
867.389 0.114541
869.366 0.115954
871.343 0.115998
873.318 0.115005
875.292 0.113258
877.264 0.112657
879.236 0.109407
881.206 0.112492
883.175 0.113539
885.143 0.113683
887.109 0.111131
889.074 0.112343
891.038 0.110383
893.001 0.113356
894.962 0.112455
896.922 0.113398
898.881 0.109687
900.839 0.111619
902.796 0.110561
904.751 0.113006
906.705 0.114201
908.658 0.111702
910.609 0.112676
912.56 0.113734
914.509 0.111528
916.457 0.111178
918.403 0.112419
920.349 0.108904
922.293 0.109279
924.236 0.108909
926.178 0.107848
928.118 0.108493
930.058 0.109079
931.996 0.110783
933.933 0.105762
935.868 0.108374
937.803 0.107386
939.736 0.107911
941.668 0.107302
943.599 0.108764
945.528 0.106203
947.457 0.109481
949.384 0.107229
951.31 0.108224
953.234 0.110227
955.158 0.107335
957.08 0.105585
959.001 0.108366
960.921 0.109075
962.84 0.107988
964.757 0.110289
966.674 0.107317
968.589 0.109106
970.503 0.110678
972.415 0.110705
974.327 0.113034
976.237 0.11273
978.146 0.114888
980.054 0.112729
981.961 0.116881
983.866 0.120724
985.77 0.124934
987.673 0.128419
989.575 0.135507
991.476 0.139741
993.375 0.147869
995.274 0.163632
997.171 0.195341
999.067 0.23261
1000.96 0.259565
1002.85 0.264269
1004.74 0.242616
1006.63 0.202222
1008.52 0.162165
1010.41 0.14193
1012.3 0.124157
1014.19 0.117477
1016.07 0.117691
1017.96 0.114176
1019.84 0.116935
1021.72 0.118294
1023.6 0.123837
1025.48 0.127609
1027.36 0.13658
1029.24 0.147923
1031.11 0.152482
1032.99 0.153177
1034.86 0.147137
1036.73 0.137729
1038.6 0.130201
1040.47 0.123831
1042.34 0.115969
1044.21 0.116014
1046.08 0.111883
1047.94 0.110766
1049.81 0.108805
1051.67 0.110731
1053.53 0.109951
1055.39 0.109248
1057.25 0.107845
1059.11 0.10833
1060.97 0.10769
1062.82 0.110872
1064.68 0.110923
1066.53 0.109429
1068.38 0.110252
1070.24 0.111367
1072.09 0.109233
1073.94 0.112331
1075.78 0.110567
1077.63 0.112569
1079.48 0.112597
1081.32 0.109696
1083.16 0.110838
1085.01 0.109857
1086.85 0.108525
1088.69 0.110296
1090.53 0.112389
1092.36 0.108666
1094.2 0.112459
1096.03 0.109518
1097.87 0.109817
1099.7 0.109605
1101.53 0.109528
1103.36 0.108673
1105.19 0.110954
1107.02 0.106152
1108.85 0.107174
1110.68 0.10379
1112.5 0.10239
1114.32 0.100708
1116.15 0.101734
1117.97 0.100965
1119.79 0.101737
1121.61 0.0974299
1123.43 0.097723
1125.24 0.0969965
1127.06 0.0977518
1128.88 0.0973846
1130.69 0.096035
1132.5 0.0946412
1134.31 0.0961275
1136.12 0.0939023
1137.93 0.0962726
1139.74 0.0967799
1141.55 0.0986136
1143.35 0.0963714
1145.16 0.0966532
1146.96 0.0957623
1148.76 0.100325
1150.57 0.102616
1152.37 0.107601
1154.17 0.113459
1155.96 0.114129
1157.76 0.117259
1159.56 0.117878
1161.35 0.111449
1163.14 0.109395
1164.94 0.105505
1166.73 0.104404
1168.52 0.102512
1170.31 0.102754
1172.1 0.106174
1173.88 0.104878
1175.67 0.109683
1177.45 0.112319
1179.24 0.115343
1181.02 0.120578
1182.8 0.124846
1184.58 0.128164
1186.36 0.127849
1188.14 0.123791
1189.92 0.124029
1191.69 0.12302
1193.47 0.125633
1195.24 0.126813
1197.01 0.127626
1198.78 0.130131
1200.55 0.129588
1202.32 0.126467
1204.09 0.122075
1205.86 0.121595
1207.63 0.117691
1209.39 0.11534
1211.15 0.108997
1212.92 0.108685
1214.68 0.108088
1216.44 0.103826
1218.2 0.104294
1219.96 0.100569
1221.72 0.103993
1223.47 0.100014
1225.23 0.100786
1226.98 0.0983826
1228.73 0.0959475
1230.49 0.0982829
1232.24 0.0954117
1233.99 0.0942674
1235.73 0.096766
1237.48 0.0959266
1239.23 0.0950709
1240.97 0.0960661
1242.72 0.0949478
1244.46 0.094492
1246.2 0.0942478
1247.95 0.094642
1249.69 0.095744
1251.43 0.095705
1253.16 0.0954781
1254.9 0.0945558
1256.64 0.0974188
1258.37 0.095396
1260.1 0.0948801
1261.84 0.0990531
1263.57 0.0982775
1265.3 0.0976437
1267.03 0.099157
1268.76 0.0983677
1270.48 0.0960573
1272.21 0.0992025
1273.94 0.100256
1275.66 0.0975523
1277.38 0.100698
1279.1 0.100238
1280.83 0.0979189
1282.55 0.0999116
1284.26 0.100992
1285.98 0.0992585
1287.7 0.10063
1289.41 0.100253
1291.13 0.102111
1292.84 0.102232
1294.56 0.105668
1296.27 0.102341
1297.98 0.104922
1299.69 0.105019
1301.39 0.107937
1303.1 0.10597
1304.81 0.107867
1306.51 0.109002
1308.22 0.108258
1309.92 0.106562
1311.62 0.106008
1313.32 0.108189
1315.02 0.105158
1316.72 0.103622
1318.42 0.105382
1320.12 0.104717
1321.81 0.102679
1323.51 0.103941
1325.2 0.103502
1326.89 0.106414
1328.59 0.102322
1330.28 0.100383
1331.97 0.10368
1333.66 0.101528
1335.34 0.100745
1337.03 0.0987366
1338.71 0.100923
1340.4 0.0974716
1342.08 0.09853
1343.76 0.0993089
1345.45 0.100585
1347.13 0.0999429
1348.81 0.0973026
1350.48 0.0960689
1352.16 0.0948407
1353.84 0.0931519
1355.51 0.0926741
1357.19 0.0928702
1358.86 0.0926422
1360.53 0.0925623
1362.2 0.0916472
1363.87 0.0933231
1365.54 0.0922049
1367.21 0.0906319
1368.88 0.0929686
1370.54 0.0888671
1372.21 0.090254
1373.87 0.0915164
1375.54 0.0877753
1377.2 0.0882783
1378.86 0.0873819
1380.52 0.0859155
1382.18 0.0864154
1383.83 0.0846014
1385.49 0.0852772
1387.15 0.0836809
1388.8 0.0848444
1390.46 0.0838904
1392.11 0.0828566
1393.76 0.0802188
1395.41 0.0833832
1397.06 0.0854672
1398.71 0.0837011
1400.36 0.0834089
1402.01 0.0819515
1403.65 0.0834511
1405.3 0.083786
1406.94 0.0845572
1408.58 0.0834703
1410.22 0.0849181
1411.87 0.0850427
1413.51 0.0821403
1415.14 0.0843759
1416.78 0.0814099
1418.42 0.0860636
1420.05 0.0848684
1421.69 0.0859091
1423.32 0.0845644
1424.96 0.0851414
1426.59 0.0848052
1428.22 0.0863281
1429.85 0.087474
1431.48 0.0895603
1433.11 0.0892456
1434.73 0.0931655
1436.36 0.095938
1437.98 0.0988318
1439.61 0.0955018
1441.23 0.097473
1442.85 0.100184
1444.47 0.101278
1446.09 0.103021
1447.71 0.103774
1449.33 0.107055
1450.95 0.107917
1452.56 0.104424
1454.18 0.102238
1455.79 0.104583
1457.41 0.0986649
1459.02 0.0921103
1460.63 0.0898616
1462.24 0.0885186
1463.85 0.0862963
1465.46 0.0837308
1467.07 0.084981
1468.67 0.0775819
1470.28 0.0823116
1471.88 0.0802427
1473.49 0.0832082
1475.09 0.0807219
1476.69 0.0793904
1478.29 0.0797558
1479.89 0.0784699
1481.49 0.0807601
1483.09 0.0786297
1484.68 0.0810578
1486.28 0.0785787
1487.87 0.0794496
1489.47 0.0789268
1491.06 0.0759525
1492.65 0.0760275
1494.24 0.0790106
1495.83 0.0787204
1497.42 0.0766229
1499.01 0.0782613
1500.6 0.0804942
1502.18 0.0791146
1503.77 0.0760373
1505.35 0.0771941
1506.93 0.075879
1508.52 0.0753683
1510.1 0.0790139
1511.68 0.0777547
1513.26 0.0774957
1514.84 0.0759218
1516.41 0.0764342
1517.99 0.0781925
1519.57 0.0744587
1521.14 0.0780075
1522.71 0.0762986
1524.29 0.0726246
1525.86 0.0760437
1527.43 0.074519
1529 0.0749868
1530.57 0.074938
1532.14 0.0763415
1533.7 0.0750507
1535.27 0.0731027
1536.84 0.0752492
1538.4 0.077988
1539.96 0.0776331
1541.53 0.0781462
1543.09 0.0783463
1544.65 0.0750249
1546.21 0.0744419
1547.77 0.0747078
1549.32 0.0725432
1550.88 0.0736416
1552.44 0.0753861
1553.99 0.074215
1555.54 0.0710347
1557.1 0.0755398
1558.65 0.0751304
1560.2 0.0739667
1561.75 0.0770769
1563.3 0.0742238
1564.85 0.0726437
1566.4 0.0753596
1567.94 0.075126
1569.49 0.0712873
1571.03 0.0751368
1572.58 0.0790947
1574.12 0.0787657
1575.66 0.0795865
1577.2 0.0782273
1578.74 0.0857212
1580.28 0.0918491
1581.82 0.0939249
1583.36 0.0911909
1584.89 0.0928824
1586.43 0.0901647
1587.96 0.0904742
1589.5 0.0873319
1591.03 0.0825043
1592.56 0.0854916
1594.09 0.0875119
1595.62 0.0926558
1597.15 0.0993468
1598.68 0.105623
1600.21 0.115999
1601.73 0.121294
1603.26 0.123785
1604.78 0.120316
1606.3 0.110508
1607.83 0.108463
1609.35 0.091145
1610.87 0.0876764
1612.39 0.0824059
1613.91 0.0826725
1615.43 0.0775289
1616.94 0.0746083
1618.46 0.0751982
1619.97 0.0751982
1621.49 0.0718152
1623 0.0758795
1624.52 0.072928
1626.03 0.0744631
1627.54 0.0737297
1629.05 0.0742726
1630.56 0.0737313
1632.06 0.069416
1633.57 0.0705046
1635.08 0.0731177
1636.58 0.0719735
1638.09 0.0733896
1639.59 0.0743386
1641.09 0.0753404
1642.6 0.0721661
1644.1 0.0749433
1645.6 0.0733512
1647.1 0.0735541
1648.59 0.0744454
1650.09 0.0725757
1651.59 0.0752691
1653.08 0.0744606
1654.58 0.0744523
1656.07 0.0797577
1657.56 0.0728776
1659.06 0.0746711
1660.55 0.0769638
1662.04 0.0772531
1663.53 0.0760892
1665.02 0.0785467
1666.5 0.0780212
1667.99 0.0809887
1669.47 0.0816517
1670.96 0.0796356
1672.44 0.0751974
1673.93 0.0725387
1675.41 0.0701201
1676.89 0.0688574
1678.37 0.0687013
1679.85 0.0672105
1681.33 0.0641869
1682.81 0.0665992
1684.28 0.0667764
1685.76 0.0660727
1687.23 0.0644059
1688.71 0.0634074
1690.18 0.0655539
1691.65 0.0651168
1693.13 0.0622968
1694.6 0.0632991
1696.07 0.062665
1697.54 0.0655244
1699 0.0669172
1700.47 0.0645934
1701.94 0.0651928
1703.4 0.0638856
1704.87 0.0647554
1706.33 0.0668095
1707.79 0.0635727
1709.26 0.0623806
1710.72 0.0611007
1712.18 0.0639764
1713.64 0.0640302
1715.1 0.0613257
1716.55 0.0635807
1718.01 0.063719
1719.47 0.0650449
1720.92 0.0617106
1722.38 0.0633915
1723.83 0.0606264
1725.28 0.0617383
1726.73 0.0634348
1728.18 0.0631497
1729.63 0.0631947
1731.08 0.0611468
1732.53 0.0626857
1733.98 0.0599552
1735.43 0.0637641
1736.87 0.0598408
1738.32 0.0612309
1739.76 0.0606351
1741.2 0.0636023
1742.64 0.0604176
1744.09 0.0601196
1745.53 0.0598574
1746.97 0.0591344
1748.4 0.0608966
1749.84 0.0592146
1751.28 0.0618888
1752.72 0.059458
1754.15 0.061131
1755.59 0.0616577
1757.02 0.0614328
1758.45 0.0587654
1759.88 0.0599531
1761.32 0.0622944
1762.75 0.0582538
1764.18 0.0602967
1765.6 0.0637767
1767.03 0.0610177
1768.46 0.0608322
1769.88 0.0612642
1771.31 0.0597142
1772.73 0.060335
1774.16 0.0591076
1775.58 0.0595341
1777 0.0604726
1778.42 0.0575983
1779.84 0.0575035
1781.26 0.0579802
1782.68 0.0600526
1784.1 0.0593217
1785.52 0.0586768
1786.93 0.0575417
1788.35 0.0585007
1789.76 0.0584126
1791.17 0.0618047
1792.59 0.0572545
1794 0.0574169
1795.41 0.0590125
1796.82 0.0600267
1798.23 0.0614626
1799.64 0.059721
1801.05 0.061084
1802.45 0.060619
1803.86 0.0604241
1805.26 0.0610079
1806.67 0.0611989
1808.07 0.0590197
1809.47 0.0587442
1810.88 0.0580829
1812.28 0.0572815
1813.68 0.0553207
1815.08 0.0567105
1816.47 0.0572336
1817.87 0.0624477
1819.27 0.0563236
1820.66 0.0605725
1822.06 0.0595384
1823.45 0.0528239
1824.85 0.0602757
1826.24 0.0581399
1827.63 0.0584296
1829.02 0.0585006
1830.41 0.0573054
1831.8 0.0604239
1833.19 0.0574155
1834.58 0.0569801
1835.97 0.0572864
1837.35 0.0556817
1838.74 0.0567664
1840.12 0.0561971
1841.51 0.0545631
1842.89 0.056588
1844.27 0.0558249
1845.65 0.0537725
1847.03 0.0567924
1848.41 0.0566464
1849.79 0.0550893
1851.17 0.0547355
1852.55 0.0575555
1853.92 0.056136
1855.3 0.05401
1856.67 0.0537295
1858.05 0.0512891
1859.42 0.0529366
1860.79 0.0544192
1862.16 0.0549607
1863.53 0.0514368
1864.9 0.0562176
1866.27 0.0552049
1867.64 0.0538977
1869.01 0.0565976
1870.38 0.0534776
1871.74 0.0551441
1873.11 0.0573708
1874.47 0.0525817
1875.84 0.0539044
1877.2 0.0514451
1878.56 0.0526874
1879.92 0.0513082
1881.28 0.0546517
1882.64 0.0504704
1884 0.0568166
1885.36 0.0537229
1886.71 0.0542146
1888.07 0.053696
1889.43 0.0530944
1890.78 0.0554031
1892.13 0.0537887
1893.49 0.053899
1894.84 0.0541521
1896.19 0.0550727
1897.54 0.0540166
1898.89 0.0504386
1900.24 0.0541051
1901.59 0.0540781
1902.94 0.0504784
1904.28 0.0520218
1905.63 0.0536757
1906.97 0.05566
1908.32 0.0517195
1909.66 0.0528898
1911.01 0.0528104
1912.35 0.052159
1913.69 0.0492384
1915.03 0.0519884
1916.37 0.0535122
1917.71 0.0542031
1919.05 0.0511712
1920.38 0.0563785
1921.72 0.0521411
1923.06 0.0513889
1924.39 0.0541345
1925.72 0.0538481
1927.06 0.0510911
1928.39 0.0512465
1929.72 0.0544221
1931.05 0.0530068
1932.38 0.0541581
1933.71 0.0541148
1935.04 0.0523212
1936.37 0.0517027
1937.7 0.0515538
1939.02 0.052804
1940.35 0.0540041
1941.67 0.0532833
1943 0.0517196
1944.32 0.0513495
1945.64 0.0557915
1946.96 0.05294
1948.28 0.0494445
1949.6 0.0519208
1950.92 0.0526781
1952.24 0.0481968
1953.56 0.0475377
1954.88 0.0480192
1956.19 0.0508009
1957.51 0.049055
1958.82 0.0460896
1960.14 0.0480756
