scanname 扫描047
timestamp 8/4/2000 20:51
ccdbias 1705.09
ccdgain 2.46132
sigmaread 11.4449
laserwavenum -0.379069
wavenumcorrection -0.651974
scancount 1
totalexposurems 1000
singleexposurems 1000
measurementstate Unknown
scanmode Identification
snr 19.6489 19.6489 19.6489
replacelist 0
peaks 33
320.324 0.422228 0 0.183477 2.07045e-05
402.137 0.445712 0 0.529594 0.00016945
446.371 0.483729 0 1.52863 0.000290762
575.725 0.368399 0 0.400712 1.70595e-05
580.164 0.362496 0 1.22502 0.00016524
591.866 0.363066 0 0.671862 2.93624e-05
610.69 0.397286 0 0.244954 0.000154276
635.756 0.476241 0 14.2005 0.00197615
706.148 0.407365 0 13.733 0.0019205
734.048 0.328441 0 4.49831 0.000700727
755.311 0.26245 0 0.205181 2.54851e-05
767.05 0.264197 0 0.117558 1.25216e-05
817.961 0.27951 0 0.434145 0.000190093
829.536 0.288687 0 1.47784 0.000337628
888.711 0.47323 0 16.6765 0.00280813
920.383 0.254793 0 2.89205 0.000555631
936.165 0.235348 0 0.624747 0.000142012
1006.79 0.232419 0 1.75831 0.000413103
1082.82 0.205089 0 1.06702 0.000325875
1112.27 0.352723 0 9.64059 0.00193303
1147.19 0.210832 0 0.733893 0.000291865
1180.13 0.31528 0 8.62099 0.00182456
1237.81 0.327175 0 0.579678 0.000331983
1293.35 0.212494 0 0.22668 0.000137028
1309.83 0.210671 0 0.98251 0.000396766
1387.01 0.176975 0 0.645142 0.000208317
1419.68 0.178709 0 0.150191 4.07919e-05
1446.89 0.218316 0 1.2419 0.000523026
1465.05 0.215146 0 0.975072 0.000469368
1510.56 0.163807 0 0.11771 6.08262e-05
1603.57 0.357681 0 4.61579 0.00175132
1654.29 0.144178 0 0.0895945 2.4904e-05
1774.33 0.138029 0 0.277196 0.000140185
finalresult Mixture 2A13503	0.952237
A16798	0.0338086
spectrum 2048
-91.4048 0.0225843
-88.8068 0.0242015
-86.2104 0.282069
-83.6159 0.306082
-81.0229 0.275119
-78.4318 0.329119
-75.8423 0.33127
-73.2544 0.370258
-70.6684 0.371117
-68.084 0.329108
-65.5013 0.286644
-62.9203 0.39647
-60.3411 0.333747
-57.7634 0.347426
-55.1875 0.385643
-52.6133 0.426246
-50.0408 0.45504
-47.4701 0.4429
-44.9009 0.471652
-42.3335 0.47322
-39.7677 0.484073
-37.2036 0.498269
-34.6413 0.49753
-32.0805 0.534675
-29.5215 0.518698
-26.9641 0.524556
-24.4086 0.553437
-21.8546 0.565449
-19.3022 0.606276
-16.7516 0.629177
-14.2026 0.660529
-11.6554 0.730131
-9.10979 0.785229
-6.56594 0.429779
-4.02366 0.163428
-1.483 0.13309
1.05584 0.13364
3.59318 0.134257
6.12868 0.143393
8.66262 0.370263
11.1949 0.338105
13.7255 0.395819
16.2545 0.467443
18.7817 0.492666
21.3073 0.456396
23.8313 0.45157
26.3536 0.455963
28.8743 0.485845
31.3933 0.514385
33.9106 0.48468
36.4263 0.497932
38.9404 0.510294
41.4527 0.487369
43.9635 0.494125
46.4726 0.494985
48.9801 0.503841
51.4859 0.491329
53.99 0.505541
56.4926 0.525943
58.9935 0.528173
61.4927 0.527782
63.9903 0.52721
66.4863 0.520135
68.9807 0.525488
71.4734 0.515024
73.9644 0.513186
76.4538 0.473487
78.9417 0.453185
81.4278 0.457383
83.9124 0.432389
86.3953 0.389343
88.8766 0.375349
91.3563 0.432837
93.8343 0.432472
96.3108 0.382192
98.7855 0.418866
101.259 0.331296
103.73 0.371547
106.2 0.425791
108.669 0.43192
111.135 0.457218
113.6 0.483522
116.064 0.549423
118.526 0.665993
120.986 0.679286
123.445 0.709162
125.902 0.757862
128.357 0.78024
130.811 0.762265
133.263 0.747114
135.714 0.726872
138.163 0.714753
140.61 0.688038
143.056 0.668482
145.5 0.655378
147.943 0.636428
150.384 0.626501
152.823 0.609328
155.261 0.597156
157.698 0.587236
160.132 0.574889
162.565 0.567438
164.997 0.558554
167.427 0.551928
169.855 0.547378
172.282 0.544914
174.707 0.537894
177.13 0.532502
179.552 0.527972
181.973 0.522047
184.391 0.524909
186.809 0.523504
189.224 0.515672
191.638 0.51706
194.051 0.51183
196.462 0.50674
198.871 0.506761
201.279 0.505391
203.685 0.501925
206.09 0.502234
208.493 0.497877
210.894 0.49775
213.294 0.494481
215.693 0.493501
218.089 0.489485
220.485 0.491773
222.878 0.491126
225.27 0.487051
227.661 0.488297
230.05 0.484962
232.437 0.483106
234.823 0.490128
237.207 0.484075
239.59 0.48416
241.971 0.484815
244.351 0.484522
246.729 0.483673
249.106 0.477823
251.481 0.481591
253.854 0.479254
256.226 0.475709
258.597 0.47619
260.966 0.471627
263.333 0.470097
265.699 0.465631
268.063 0.463145
270.425 0.4619
272.787 0.45925
275.146 0.458726
277.504 0.456716
279.861 0.449763
282.216 0.448713
284.569 0.444672
286.921 0.441601
289.272 0.43663
291.62 0.43294
293.968 0.43601
296.314 0.430105
298.658 0.427974
301.001 0.425757
303.342 0.425863
305.682 0.423602
308.02 0.426483
310.357 0.422616
312.692 0.420108
315.025 0.421685
317.357 0.421866
319.688 0.423447
322.017 0.422918
324.345 0.4219
326.671 0.418998
328.995 0.423839
331.319 0.419907
333.64 0.42027
335.96 0.4142
338.279 0.410919
340.596 0.416705
342.911 0.412164
345.225 0.409908
347.538 0.406878
349.849 0.408399
352.158 0.404913
354.466 0.404323
356.773 0.402771
359.078 0.404698
361.381 0.398871
363.683 0.399949
365.984 0.40206
368.283 0.402861
370.581 0.408933
372.877 0.405691
375.171 0.409119
377.464 0.411557
379.756 0.413133
382.046 0.412583
384.335 0.415113
386.622 0.417643
388.907 0.422536
391.192 0.425884
393.474 0.433075
395.756 0.439197
398.035 0.442379
400.314 0.444601
402.591 0.445192
404.866 0.446603
407.14 0.44037
409.412 0.440188
411.683 0.438319
413.953 0.443491
416.22 0.441901
418.487 0.447862
420.752 0.445922
423.016 0.443369
425.278 0.444366
427.538 0.448231
429.798 0.452929
432.055 0.457984
434.312 0.458033
436.566 0.4693
438.82 0.472528
441.072 0.476751
443.322 0.480725
445.571 0.484878
447.819 0.48035
450.065 0.482607
452.309 0.472716
454.552 0.463468
456.794 0.452601
459.034 0.439643
461.273 0.432818
463.511 0.421287
465.747 0.409729
467.981 0.402847
470.214 0.394791
472.446 0.385536
474.676 0.379838
476.905 0.370669
479.132 0.367069
481.358 0.361753
483.582 0.359599
485.805 0.356573
488.027 0.354964
490.247 0.351526
492.466 0.349378
494.683 0.349451
496.899 0.347828
499.113 0.344161
501.326 0.341602
503.537 0.345419
505.748 0.343238
507.956 0.34054
510.164 0.341092
512.369 0.337616
514.574 0.335925
516.777 0.334086
518.978 0.331462
521.179 0.331726
523.377 0.330464
525.575 0.329915
527.771 0.327994
529.965 0.325883
532.158 0.328241
534.35 0.327211
536.54 0.325518
538.729 0.327434
540.916 0.324701
543.102 0.323491
545.287 0.32552
547.47 0.3248
549.652 0.329861
551.832 0.331407
554.012 0.335849
556.189 0.331628
558.365 0.332166
560.54 0.336778
562.714 0.335563
564.886 0.339815
567.056 0.343385
569.225 0.341226
571.393 0.350011
573.56 0.357491
575.725 0.360072
577.888 0.361784
580.051 0.361237
582.212 0.360666
584.371 0.358093
586.529 0.357771
588.686 0.360902
590.841 0.362099
592.995 0.366619
595.148 0.372149
597.299 0.377584
599.449 0.380908
601.597 0.383658
603.744 0.390755
605.89 0.393978
608.034 0.397813
610.177 0.394866
612.319 0.396462
614.459 0.395984
616.598 0.391223
618.735 0.386583
620.871 0.379945
623.006 0.379024
625.139 0.377909
627.271 0.38564
629.402 0.40363
631.531 0.430068
633.659 0.46443
635.785 0.481408
637.91 0.471327
640.034 0.439878
642.156 0.392918
644.277 0.352573
646.397 0.326346
648.516 0.313654
650.633 0.304358
652.748 0.298787
654.862 0.297659
656.975 0.294111
659.087 0.292579
661.197 0.291546
663.306 0.290956
665.413 0.286647
667.52 0.286692
669.624 0.28487
671.728 0.282067
673.83 0.27918
675.931 0.279164
678.03 0.277332
680.128 0.275076
682.225 0.274644
684.321 0.274927
686.415 0.274754
688.507 0.274992
690.599 0.276582
692.689 0.27963
694.778 0.285256
696.865 0.294108
698.951 0.31278
701.036 0.349623
703.119 0.38819
705.201 0.408284
707.282 0.40815
709.362 0.38761
711.44 0.351809
713.516 0.325675
715.592 0.30762
717.666 0.291528
719.739 0.294153
721.81 0.288618
723.88 0.294385
725.949 0.300512
728.017 0.307451
730.083 0.317011
732.148 0.325596
734.211 0.330924
736.274 0.323041
738.335 0.315684
740.394 0.299808
742.453 0.279386
744.51 0.270149
746.565 0.268769
748.62 0.266161
750.673 0.262156
752.725 0.260765
754.775 0.262615
756.824 0.262809
758.872 0.263969
760.918 0.261015
762.964 0.260957
765.008 0.259678
767.05 0.259315
769.092 0.258275
771.132 0.256618
773.17 0.252704
775.208 0.25019
777.244 0.250988
779.279 0.249049
781.313 0.247427
783.345 0.246667
785.376 0.245285
787.406 0.245611
789.434 0.245001
791.461 0.243641
793.487 0.239655
795.511 0.239504
797.535 0.238041
799.557 0.237713
801.577 0.242408
803.597 0.244071
805.615 0.250825
807.632 0.260065
809.647 0.267225
811.662 0.270523
813.675 0.275011
815.686 0.28139
817.697 0.27859
819.706 0.278285
821.714 0.277119
823.721 0.281354
825.726 0.284179
827.73 0.286016
829.733 0.290252
831.735 0.28745
833.735 0.281846
835.734 0.275474
837.732 0.266345
839.728 0.259469
841.723 0.252176
843.717 0.252643
845.71 0.244335
847.701 0.245844
849.692 0.241386
851.681 0.241042
853.668 0.238913
855.655 0.241591
857.64 0.240122
859.624 0.239411
861.606 0.237564
863.588 0.238764
865.568 0.236613
867.547 0.237736
869.524 0.239077
871.501 0.244681
873.476 0.253925
875.45 0.267068
877.422 0.282875
879.394 0.316884
881.364 0.350154
883.333 0.392892
885.301 0.439045
887.267 0.466103
889.232 0.475571
891.196 0.456411
893.159 0.414811
895.12 0.359037
897.08 0.308569
899.039 0.275546
900.997 0.251312
902.954 0.235916
904.909 0.230305
906.863 0.228524
908.816 0.22313
910.767 0.225598
912.718 0.234299
914.667 0.238528
916.615 0.243733
918.561 0.252623
920.507 0.25597
922.451 0.254247
924.394 0.244487
926.336 0.23506
928.276 0.229822
930.216 0.230344
932.154 0.23152
934.091 0.23609
936.026 0.236399
937.961 0.23556
939.894 0.233339
941.826 0.227858
943.757 0.227695
945.686 0.223355
947.615 0.220711
949.542 0.214833
951.468 0.211788
953.392 0.206531
955.316 0.203209
957.238 0.204589
959.159 0.202797
961.079 0.201982
962.998 0.201267
964.915 0.200098
966.832 0.201125
968.747 0.201567
970.661 0.200752
972.573 0.202061
974.485 0.196226
976.395 0.200372
978.304 0.1987
980.212 0.196486
982.119 0.197185
984.024 0.195363
985.928 0.20032
987.831 0.198323
989.733 0.20055
991.634 0.201647
993.533 0.20937
995.432 0.210797
997.329 0.212634
999.225 0.215623
1001.12 0.221107
1003.01 0.226461
1004.9 0.230459
1006.79 0.233907
1008.68 0.230079
1010.57 0.226062
1012.46 0.219478
1014.35 0.208792
1016.23 0.209645
1018.12 0.209231
1020 0.21003
1021.88 0.207406
1023.76 0.206576
1025.64 0.202115
1027.52 0.199436
1029.4 0.194225
1031.27 0.195944
1033.15 0.192707
1035.02 0.190094
1036.89 0.189833
1038.76 0.188822
1040.63 0.188308
1042.5 0.18916
1044.37 0.185468
1046.24 0.186577
1048.1 0.185007
1049.97 0.184036
1051.83 0.189412
1053.69 0.189436
1055.55 0.18751
1057.41 0.18705
1059.27 0.190099
1061.13 0.191746
1062.98 0.187108
1064.84 0.191933
1066.69 0.185503
1068.54 0.188753
1070.4 0.187655
1072.25 0.189251
1074.1 0.192831
1075.94 0.18991
1077.79 0.198225
1079.64 0.198851
1081.48 0.204083
1083.32 0.206683
1085.17 0.204714
1087.01 0.198019
1088.85 0.202354
1090.69 0.198226
1092.52 0.197641
1094.36 0.198779
1096.19 0.204738
1098.03 0.213218
1099.86 0.221852
1101.69 0.234787
1103.52 0.252012
1105.35 0.276383
1107.18 0.302668
1109.01 0.330704
1110.84 0.34991
1112.66 0.356509
1114.48 0.341576
1116.31 0.316131
1118.13 0.289252
1119.95 0.257497
1121.77 0.236885
1123.59 0.22037
1125.4 0.212155
1127.22 0.20304
1129.04 0.200998
1130.85 0.197131
1132.66 0.191576
1134.47 0.193652
1136.28 0.193828
1138.09 0.195814
1139.9 0.201477
1141.71 0.202714
1143.51 0.205246
1145.32 0.211022
1147.12 0.21082
1148.92 0.209753
1150.73 0.207219
1152.53 0.20246
1154.33 0.20396
1156.12 0.200369
1157.92 0.203293
1159.72 0.203328
1161.51 0.212382
1163.3 0.212369
1165.1 0.220502
1166.89 0.222957
1168.68 0.222514
1170.47 0.227444
1172.26 0.239272
1174.04 0.251531
1175.83 0.275631
1177.61 0.301102
1179.4 0.318322
1181.18 0.31587
1182.96 0.299317
1184.74 0.275782
1186.52 0.256496
1188.3 0.237575
1190.08 0.230513
1191.85 0.225754
1193.63 0.228672
1195.4 0.225591
1197.17 0.222931
1198.94 0.223061
1200.71 0.225698
1202.48 0.218161
1204.25 0.213408
1206.02 0.215388
1207.79 0.215222
1209.55 0.220964
1211.31 0.22311
1213.08 0.229962
1214.84 0.237548
1216.6 0.247414
1218.36 0.259011
1220.12 0.265799
1221.88 0.27599
1223.63 0.284169
1225.39 0.295775
1227.14 0.302132
1228.89 0.310984
1230.65 0.315136
1232.4 0.324679
1234.15 0.324833
1235.89 0.328585
1237.64 0.324983
1239.39 0.330011
1241.13 0.324833
1242.88 0.313987
1244.62 0.313902
1246.36 0.302071
1248.11 0.292485
1249.85 0.279719
1251.59 0.271401
1253.32 0.260478
1255.06 0.248963
1256.8 0.236357
1258.53 0.227692
1260.26 0.225395
1262 0.214912
1263.73 0.210666
1265.46 0.207991
1267.19 0.204067
1268.92 0.201922
1270.64 0.201941
1272.37 0.20155
1274.1 0.19599
1275.82 0.195823
1277.54 0.200443
1279.26 0.198843
1280.99 0.202362
1282.71 0.201424
1284.42 0.204661
1286.14 0.20565
1287.86 0.20906
1289.57 0.20978
1291.29 0.212071
1293 0.211467
1294.72 0.213077
1296.43 0.211315
1298.14 0.208137
1299.85 0.209252
1301.55 0.201888
1303.26 0.204229
1304.97 0.208751
1306.67 0.209158
1308.38 0.205241
1310.08 0.210885
1311.78 0.212253
1313.48 0.203888
1315.18 0.200362
1316.88 0.190203
1318.58 0.187586
1320.28 0.177882
1321.97 0.179763
1323.67 0.178475
1325.36 0.176019
1327.05 0.173411
1328.75 0.177232
1330.44 0.171242
1332.13 0.17258
1333.82 0.172947
1335.5 0.170537
1337.19 0.173281
1338.87 0.174648
1340.56 0.173842
1342.24 0.170221
1343.92 0.170818
1345.61 0.172274
1347.29 0.17215
1348.97 0.171996
1350.64 0.170764
1352.32 0.168402
1354 0.16858
1355.67 0.167802
1357.35 0.170415
1359.02 0.170626
1360.69 0.169112
1362.36 0.169068
1364.03 0.16989
1365.7 0.171203
1367.37 0.171937
1369.04 0.167425
1370.7 0.169804
1372.37 0.167717
1374.03 0.167749
1375.7 0.16801
1377.36 0.168531
1379.02 0.171558
1380.68 0.168048
1382.34 0.172268
1383.99 0.175833
1385.65 0.17709
1387.31 0.178143
1388.96 0.174899
1390.62 0.174147
1392.27 0.16923
1393.92 0.168706
1395.57 0.167377
1397.22 0.169503
1398.87 0.168457
1400.52 0.17008
1402.17 0.170026
1403.81 0.171441
1405.46 0.174248
1407.1 0.172394
1408.74 0.174894
1410.38 0.172264
1412.03 0.177543
1413.67 0.177023
1415.3 0.178427
1416.94 0.179287
1418.58 0.177891
1420.21 0.180343
1421.85 0.176648
1423.48 0.180555
1425.12 0.175487
1426.75 0.174468
1428.38 0.177471
1430.01 0.174602
1431.64 0.178686
1433.27 0.180236
1434.89 0.180613
1436.52 0.184707
1438.14 0.189312
1439.77 0.199341
1441.39 0.20306
1443.01 0.209024
1444.63 0.214814
1446.25 0.222389
1447.87 0.216433
1449.49 0.212047
1451.11 0.210539
1452.72 0.205358
1454.34 0.204784
1455.95 0.204426
1457.57 0.202798
1459.18 0.206905
1460.79 0.210134
1462.4 0.213071
1464.01 0.212621
1465.62 0.214575
1467.23 0.213796
1468.83 0.210113
1470.44 0.199957
1472.04 0.192449
1473.65 0.186984
1475.25 0.181278
1476.85 0.1784
1478.45 0.174049
1480.05 0.16973
1481.65 0.168837
1483.25 0.166414
1484.84 0.164179
1486.44 0.166118
1488.03 0.16117
1489.63 0.161736
1491.22 0.161813
1492.81 0.158967
1494.4 0.159969
1495.99 0.160596
1497.58 0.165059
1499.17 0.161313
1500.76 0.16469
1502.34 0.161756
1503.93 0.161254
1505.51 0.159495
1507.09 0.164851
1508.68 0.165405
1510.26 0.162633
1511.84 0.166824
1513.42 0.162545
1515 0.161683
1516.57 0.159632
1518.15 0.159322
1519.73 0.160436
1521.3 0.155772
1522.87 0.155613
1524.45 0.153984
1526.02 0.154947
1527.59 0.156485
1529.16 0.155226
1530.73 0.150493
1532.3 0.152609
1533.86 0.151312
1535.43 0.154438
1537 0.152509
1538.56 0.155478
1540.12 0.153442
1541.69 0.152153
1543.25 0.149997
1544.81 0.153041
1546.37 0.155218
1547.93 0.155026
1549.48 0.154638
1551.04 0.151968
1552.6 0.154483
1554.15 0.154553
1555.7 0.156139
1557.26 0.159445
1558.81 0.158885
1560.36 0.162501
1561.91 0.163561
1563.46 0.164567
1565.01 0.168275
1566.56 0.169016
1568.1 0.164723
1569.65 0.168149
1571.19 0.166367
1572.74 0.166347
1574.28 0.169342
1575.82 0.170414
1577.36 0.175818
1578.9 0.175889
1580.44 0.178551
1581.98 0.18197
1583.52 0.190311
1585.05 0.201951
1586.59 0.213993
1588.12 0.227044
1589.66 0.238539
1591.19 0.255707
1592.72 0.268207
1594.25 0.281746
1595.78 0.294783
1597.31 0.308709
1598.84 0.319821
1600.37 0.338297
1601.89 0.351319
1603.42 0.359324
1604.94 0.353685
1606.46 0.344892
1607.99 0.322214
1609.51 0.301767
1611.03 0.280529
1612.55 0.260361
1614.07 0.236222
1615.59 0.225818
1617.1 0.21193
1618.62 0.200957
1620.13 0.187738
1621.65 0.186951
1623.16 0.176863
1624.68 0.172145
1626.19 0.170323
1627.7 0.164446
1629.21 0.163941
1630.72 0.15954
1632.22 0.155512
1633.73 0.157949
1635.24 0.155839
1636.74 0.152632
1638.25 0.156171
1639.75 0.152784
1641.25 0.153964
1642.76 0.149709
1644.26 0.14418
1645.76 0.148799
1647.26 0.147265
1648.75 0.145391
1650.25 0.144941
1651.75 0.143365
1653.24 0.142982
1654.74 0.144241
1656.23 0.143395
1657.72 0.147707
1659.22 0.142679
1660.71 0.141784
1662.2 0.141688
1663.69 0.139882
1665.18 0.141787
1666.66 0.139261
1668.15 0.142063
1669.63 0.141952
1671.12 0.136446
1672.6 0.133177
1674.09 0.135559
1675.57 0.131742
1677.05 0.131558
1678.53 0.133058
1680.01 0.12774
1681.49 0.129907
1682.97 0.12926
1684.44 0.124956
1685.92 0.126899
1687.39 0.129082
1688.87 0.125135
1690.34 0.128541
1691.81 0.123378
1693.29 0.126983
1694.76 0.124995
1696.23 0.123999
1697.7 0.127416
1699.16 0.128017
1700.63 0.125562
1702.1 0.12748
1703.56 0.126124
1705.03 0.123836
1706.49 0.126138
1707.95 0.123317
1709.42 0.125921
1710.88 0.123971
1712.34 0.121229
1713.8 0.120549
1715.26 0.122818
1716.71 0.123634
1718.17 0.124983
1719.63 0.123046
1721.08 0.120035
1722.54 0.124482
1723.99 0.122093
1725.44 0.123898
1726.89 0.123231
1728.34 0.122033
1729.79 0.123472
1731.24 0.125021
1732.69 0.123033
1734.14 0.119625
1735.59 0.120109
1737.03 0.118135
1738.48 0.122118
1739.92 0.121758
1741.36 0.120919
1742.8 0.120489
1744.25 0.120874
1745.69 0.116224
1747.13 0.124174
1748.56 0.122402
1750 0.122441
1751.44 0.119159
1752.88 0.121675
1754.31 0.118318
1755.75 0.12066
1757.18 0.127796
1758.61 0.123449
1760.04 0.123224
1761.48 0.123042
1762.91 0.129615
1764.34 0.128951
1765.76 0.132482
1767.19 0.130821
1768.62 0.133711
1770.04 0.131752
1771.47 0.140429
1772.89 0.140581
1774.32 0.137213
1775.74 0.136384
1777.16 0.136797
1778.58 0.132926
1780 0.134701
1781.42 0.131782
1782.84 0.135385
1784.26 0.12913
1785.68 0.127057
1787.09 0.128563
1788.51 0.119516
1789.92 0.11938
1791.33 0.121601
1792.75 0.117826
1794.16 0.116415
1795.57 0.116313
1796.98 0.115661
1798.39 0.118813
1799.8 0.116695
1801.21 0.116712
1802.61 0.11649
1804.02 0.116541
1805.42 0.117507
1806.83 0.113204
1808.23 0.115194
1809.63 0.110082
1811.04 0.113889
1812.44 0.116534
1813.84 0.116072
1815.24 0.117417
1816.63 0.112579
1818.03 0.111118
1819.43 0.112166
1820.82 0.109681
1822.22 0.111638
1823.61 0.109426
1825.01 0.111839
1826.4 0.110968
1827.79 0.110825
1829.18 0.113367
1830.57 0.109779
1831.96 0.108653
1833.35 0.108705
1834.74 0.111258
1836.13 0.109587
1837.51 0.111133
1838.9 0.110306
1840.28 0.11141
1841.67 0.107812
1843.05 0.107639
1844.43 0.103614
1845.81 0.107545
1847.19 0.106242
1848.57 0.104963
1849.95 0.103168
1851.33 0.106244
1852.71 0.107883
1854.08 0.10518
1855.46 0.104632
1856.83 0.102889
1858.21 0.10436
1859.58 0.108296
1860.95 0.103842
1862.32 0.102041
1863.69 0.101795
1865.06 0.0994202
1866.43 0.103843
1867.8 0.101143
1869.17 0.0994622
1870.54 0.102502
1871.9 0.104051
1873.27 0.0999472
1874.63 0.100362
1876 0.101569
1877.36 0.100909
1878.72 0.098973
1880.08 0.101143
1881.44 0.0999836
1882.8 0.0992195
1884.16 0.0968677
1885.52 0.100428
1886.87 0.103119
1888.23 0.0975912
1889.59 0.102008
1890.94 0.0980856
1892.29 0.0993533
1893.65 0.0976589
1895 0.0973753
1896.35 0.0953561
1897.7 0.102239
1899.05 0.100948
1900.4 0.0974245
1901.75 0.0976873
1903.1 0.0977641
1904.44 0.096718
1905.79 0.100381
1907.13 0.0978138
1908.48 0.0964671
1909.82 0.0975
1911.17 0.0981274
1912.51 0.0985544
1913.85 0.0974338
1915.19 0.0997431
1916.53 0.099493
1917.87 0.0959395
1919.21 0.095053
1920.54 0.100172
1921.88 0.0972694
1923.22 0.0990319
1924.55 0.0963725
1925.88 0.0985632
1927.22 0.100251
1928.55 0.0976714
1929.88 0.0995668
1931.21 0.0962327
1932.54 0.0965092
1933.87 0.0970613
1935.2 0.0960453
1936.53 0.0967579
1937.86 0.100476
1939.18 0.0958859
1940.51 0.0950828
1941.83 0.0983262
1943.16 0.0985916
1944.48 0.099485
1945.8 0.0958565
1947.12 0.0958694
1948.44 0.0925626
